?
Axis	Energy	Elements=	951

C:\Users\AG Wittstock\Documents\Iza\06_27.01.2017\PET_03\Polyanalyse.DATA\C1s Scan.VGD





Binding Energy (E)				C1s Scan A	C1s Scan B	C1s Scan C	C1s Scan D	Backgnd.	Envelope	Residuals	
eV		Counts / s  (Residuals × 2)		Counts / s  (Residuals × 2)	Counts / s  (Residuals × 2)	Counts / s  (Residuals × 2)	Counts / s  (Residuals × 2)	Counts / s  (Residuals × 2)	Counts / s  (Residuals × 2)	Counts / s  (Residuals × 2)
298.000		2042.82		0.000000	0.000000	0.000000	0.000000	0.000000	2042.93	-0.113207	
297.980		1957.93		2026.48	2026.48	2026.48	2026.60	2026.48	2026.60	-68.6789	
297.960		2056.25		2023.12	2023.12	2023.12	2023.24	2023.12	2023.24	33.0066	
297.940		2045.68		2019.44	2019.44	2019.44	2019.57	2019.44	2019.57	26.1014	
297.920		2058.25		2015.61	2015.61	2015.61	2015.76	2015.61	2015.76	42.4953	
297.900		1967.93		2015.39	2015.39	2015.39	2015.55	2015.39	2015.55	-47.6187	
297.880		2032.81		2011.77	2011.77	2011.77	2011.94	2011.77	2011.94	20.8730	
297.860		2077.12		2007.95	2007.95	2007.95	2008.13	2007.95	2008.13	68.9895	
297.840		2133.71		2003.56	2003.56	2003.56	2003.74	2003.56	2003.74	129.966	
297.820		2037.67		2001.37	2001.37	2001.37	2001.57	2001.37	2001.57	36.1004	
297.800		2036.53		2001.17	2001.17	2001.17	2001.38	2001.17	2001.38	35.1514	
297.780		2063.40		1997.38	1997.38	1997.38	1997.61	1997.38	1997.61	65.7915	
297.760		1932.49		1995.10	1995.10	1995.10	1995.34	1995.10	1995.34	-62.8535	
297.740		1928.20		1992.49	1992.49	1992.49	1992.74	1992.49	1992.74	-64.5413	
297.720		1995.66		1992.05	1992.05	1992.05	1992.31	1992.05	1992.31	3.34224	
297.700		1967.93		1989.59	1989.59	1989.59	1989.88	1989.59	1989.88	-21.9451	
297.680		1958.21		1986.33	1986.33	1986.33	1986.63	1986.33	1986.63	-28.4191	
297.660		2087.98		1983.12	1983.12	1983.12	1983.44	1983.12	1983.44	104.538	
297.640		1959.64		1979.48	1979.48	1979.48	1979.82	1979.48	1979.82	-20.1769	
297.620		1962.21		1972.87	1972.87	1972.87	1973.22	1972.87	1973.22	-11.0050	
297.600		1869.89		1965.29	1965.29	1965.29	1965.66	1965.29	1965.66	-95.7732	
297.580		1899.33		1958.74	1958.74	1958.74	1959.13	1958.74	1959.13	-59.7998	
297.560		2012.81		1954.65	1954.65	1954.65	1955.06	1954.65	1955.06	57.7442	
297.540		1907.91		1949.27	1949.27	1949.27	1949.70	1949.27	1949.70	-41.7961	
297.520		1945.35		1943.72	1943.72	1943.72	1944.18	1943.72	1944.18	1.17052	
297.500		1917.34		1940.59	1940.59	1940.59	1941.07	1940.59	1941.07	-23.7308	
297.480		2016.52		1937.18	1937.18	1937.18	1937.69	1937.18	1937.69	78.8354	
297.460		2017.09		1934.83	1934.83	1934.83	1935.36	1934.83	1935.36	81.7307	
297.440		1948.21		1934.03	1934.03	1934.03	1934.59	1934.03	1934.59	13.6212	
297.420		1979.65		1933.80	1933.80	1933.80	1934.38	1933.80	1934.38	45.2664	
297.400		1993.37		1932.36	1932.36	1932.36	1932.97	1932.36	1932.97	60.3969	
297.380		1913.05		1930.89	1930.89	1930.89	1931.53	1930.89	1931.53	-18.4837	
297.360		1855.31		1928.99	1928.99	1928.99	1929.66	1928.99	1929.66	-74.3476	
297.340		1871.03		1926.33	1926.33	1926.33	1927.03	1926.33	1927.03	-55.9997	
297.320		1993.65		1922.89	1922.89	1922.89	1923.62	1922.89	1923.62	70.0310	
297.300		1922.48		1919.67	1919.67	1919.67	1920.44	1919.67	1920.44	2.04593	
297.280		1836.16		1917.07	1917.07	1917.07	1917.87	1917.07	1917.87	-81.7090	
297.260		1876.18		1913.85	1913.85	1913.85	1914.68	1913.85	1914.68	-38.5034	
297.240		1811.01		1909.99	1909.99	1909.99	1910.86	1909.99	1910.86	-99.8493	
297.220		1879.89		1905.40	1905.40	1905.40	1906.30	1905.40	1906.30	-26.4079	
297.200		1916.48		1901.91	1901.91	1901.91	1902.86	1901.91	1902.86	13.6255	
297.180		2032.53		1900.39	1900.39	1900.39	1901.38	1900.39	1901.38	131.150	
297.160		2045.68		1898.83	1898.83	1898.83	1899.85	1898.83	1899.85	145.824	
297.140		1946.78		1898.07	1898.07	1898.07	1899.14	1898.07	1899.14	47.6421	
297.120		1964.21		1897.78	1897.78	1897.78	1898.89	1897.78	1898.89	65.3288	
297.100		1859.32		1896.40	1896.40	1896.40	1897.55	1896.40	1897.55	-38.2369	
297.080		1796.72		1893.59	1893.59	1893.59	1894.78	1893.59	1894.78	-98.0607	
297.060		1885.04		1890.64	1890.64	1890.64	1891.87	1890.64	1891.87	-6.83507	
297.040		1889.33		1888.33	1888.33	1888.33	1889.61	1888.33	1889.61	-0.280203	
297.020		1917.05		1885.81	1885.81	1885.81	1887.14	1885.81	1887.14	29.9094	
297.000		1887.33		1882.97	1882.97	1882.97	1884.35	1882.97	1884.35	2.98041	
296.980		1833.88		1880.17	1880.17	1880.17	1881.59	1880.17	1881.59	-47.7159	
296.960		1793.00		1875.48	1875.48	1875.48	1876.95	1875.48	1876.95	-83.9459	
296.940		1919.91		1871.17	1871.17	1871.17	1872.70	1871.17	1872.70	47.2130	
296.920		1885.61		1866.73	1866.73	1866.73	1868.31	1866.73	1868.31	17.3021	
296.900		1920.20		1863.15	1863.15	1863.15	1864.78	1863.15	1864.78	55.4182	
296.880		1965.07		1860.41	1860.41	1860.41	1862.09	1860.41	1862.09	102.983	
296.860		1908.76		1858.90	1858.90	1858.90	1860.63	1858.90	1860.63	48.1303	
296.840		1806.72		1857.41	1857.41	1857.41	1859.20	1857.41	1859.20	-52.4767	
296.820		1873.32		1855.10	1855.10	1855.10	1856.94	1855.10	1856.94	16.3760	
296.800		1869.89		1852.06	1852.06	1852.06	1853.96	1852.06	1853.96	15.9269	
296.780		1788.14		1848.92	1848.92	1848.92	1850.87	1848.92	1850.87	-62.7294	
296.760		1795.58		1846.38	1846.38	1846.38	1848.40	1846.38	1848.40	-52.8223	
296.740		1863.60		1844.93	1844.93	1844.93	1847.00	1844.93	1847.00	16.5987	
296.720		1742.70		1844.37	1844.37	1844.37	1846.50	1844.37	1846.50	-103.807	
296.700		1825.30		1844.35	1844.35	1844.35	1846.54	1844.35	1846.54	-21.2358	
296.680		1873.32		1843.67	1843.67	1843.67	1845.92	1843.67	1845.92	27.3996	
296.660		1905.91		1843.37	1843.37	1843.37	1845.69	1843.37	1845.69	60.2196	
296.640		1797.29		1842.92	1842.92	1842.92	1845.29	1842.92	1845.29	-48.0018	
296.620		1921.34		1841.93	1841.93	1841.93	1844.37	1841.93	1844.37	76.9744	
296.600		1875.04		1841.19	1841.19	1841.19	1843.68	1841.19	1843.68	31.3520	
296.580		1792.15		1841.15	1841.15	1841.15	1843.71	1841.15	1843.71	-51.5628	
296.560		1827.30		1840.84	1840.84	1840.84	1843.46	1840.84	1843.46	-16.1611	
296.540		1783.00		1840.71	1840.71	1840.71	1843.40	1840.71	1843.40	-60.4006	
296.520		1793.00		1840.57	1840.57	1840.57	1843.32	1840.57	1843.32	-50.3194	
296.500		1798.15		1840.40	1840.40	1840.40	1843.22	1840.40	1843.22	-45.0685	
296.480		1785.00		1840.21	1840.21	1840.21	1843.09	1840.21	1843.09	-58.0888	
296.460		1876.46		1840.04	1840.04	1840.04	1842.99	1840.04	1842.99	33.4767	
296.440		1853.31		1839.76	1839.76	1839.76	1842.77	1839.76	1842.77	10.5446	
296.420		1898.47		1839.41	1839.41	1839.41	1842.49	1839.41	1842.49	55.9849	
296.400		1979.36		1839.05	1839.05	1839.05	1842.20	1839.05	1842.20	137.165	
296.380		1910.48		1838.68	1838.68	1838.68	1841.89	1838.68	1841.89	68.5883	
296.360		1799.01		1838.08	1838.08	1838.08	1841.36	1838.08	1841.36	-42.3508	
296.340		1841.31		1837.52	1837.52	1837.52	1840.87	1837.52	1840.87	0.441822	
296.320		1825.87		1837.05	1837.05	1837.05	1840.46	1837.05	1840.46	-14.5844	
296.300		1872.18		1836.47	1836.47	1836.47	1839.95	1836.47	1839.95	32.2265	
296.280		1805.01		1835.81	1835.81	1835.81	1839.35	1835.81	1839.35	-34.3430	
296.260		1805.01		1835.11	1835.11	1835.11	1838.72	1835.11	1838.72	-33.7139	
296.240		1823.87		1834.40	1834.40	1834.40	1838.08	1834.40	1838.08	-14.2079	
296.220		1848.17		1833.60	1833.60	1833.60	1837.35	1833.60	1837.35	10.8196	
296.200		1868.75		1832.63	1832.63	1832.63	1836.44	1832.63	1836.44	32.3038	
296.180		1868.46		1831.64	1831.64	1831.64	1835.53	1831.64	1835.53	32.9357	
296.160		1906.19		1830.69	1830.69	1830.69	1834.64	1830.69	1834.64	71.5473	
296.140		2002.80		1829.72	1829.72	1829.72	1833.74	1829.72	1833.74	169.064	
296.120		1856.46		1828.84	1828.84	1828.84	1832.93	1828.84	1832.93	23.5308	
296.100		1774.14		1828.01	1828.01	1828.01	1832.16	1828.01	1832.16	-58.0222	
296.080		1869.32		1827.10	1827.10	1827.10	1831.32	1827.10	1831.32	37.9993	
296.060		1897.90		1826.18	1826.18	1826.18	1830.47	1826.18	1830.47	67.4298	
296.040		1788.14		1825.21	1825.21	1825.21	1829.57	1825.21	1829.57	-41.4217	
296.020		1781.00		1824.23	1824.23	1824.23	1828.66	1824.23	1828.66	-47.6602	
296.000		1863.03		1823.21	1823.21	1823.21	1827.71	1823.21	1827.71	35.3241	
295.980		1928.49		1822.12	1822.12	1822.12	1826.68	1822.12	1826.68	101.808	
295.960		1859.89		1820.92	1820.92	1820.92	1825.55	1820.92	1825.55	34.3396	
295.940		1788.43		1819.66	1819.66	1819.66	1824.35	1819.66	1824.35	-35.9238	
295.920		1893.33		1818.39	1818.39	1818.39	1823.16	1818.39	1823.16	70.1723	
295.900		1855.03		1817.12	1817.12	1817.12	1821.95	1817.12	1821.95	33.0796	
295.880		1838.16		1815.85	1815.85	1815.85	1820.75	1815.85	1820.75	17.4106	
295.860		1845.31		1814.74	1814.74	1814.74	1819.70	1814.74	1819.70	25.6051	
295.840		1819.58		1813.64	1813.64	1813.64	1818.68	1813.64	1818.68	0.908932	
295.820		1855.03		1812.42	1812.42	1812.42	1817.53	1812.42	1817.53	37.5019	
295.800		1842.45		1811.10	1811.10	1811.10	1816.27	1811.10	1816.27	26.1846	
295.780		1818.44		1809.77	1809.77	1809.77	1815.01	1809.77	1815.01	3.43322	
295.760		1850.45		1808.43	1808.43	1808.43	1813.73	1808.43	1813.73	36.7196	
295.740		1890.47		1806.92	1806.92	1806.92	1812.29	1806.92	1812.29	78.1798	
295.720		1875.89		1805.25	1805.25	1805.25	1810.69	1805.25	1810.69	65.1991	
295.700		1836.16		1803.55	1803.55	1803.55	1809.06	1803.55	1809.06	27.1025	
295.680		1843.59		1801.79	1801.79	1801.79	1807.37	1801.79	1807.37	36.2240	
295.660		1856.74		1799.95	1799.95	1799.95	1805.60	1799.95	1805.60	51.1410	
295.640		1823.30		1798.19	1798.19	1798.19	1803.91	1798.19	1803.91	19.3922	
295.620		1803.29		1796.46	1796.46	1796.46	1802.25	1796.46	1802.25	1.04393	
295.600		1861.32		1794.70	1794.70	1794.70	1800.55	1794.70	1800.55	60.7610	
295.580		1941.35		1792.83	1792.83	1792.83	1798.75	1792.83	1798.75	142.594	
295.560		1859.89		1790.90	1790.90	1790.90	1796.90	1790.90	1796.90	62.9848	
295.540		1766.14		1788.88	1788.88	1788.88	1794.95	1788.88	1794.95	-28.8180	
295.520		1911.34		1786.74	1786.74	1786.74	1792.89	1786.74	1792.89	118.451	
295.500		1972.22		1784.43	1784.43	1784.43	1790.65	1784.43	1790.65	181.571	
295.480		1921.34		1782.05	1782.05	1782.05	1788.33	1782.05	1788.33	133.010	
295.460		1871.03		1779.66	1779.66	1779.66	1786.02	1779.66	1786.02	85.0168	
295.440		1820.73		1777.27	1777.27	1777.27	1783.70	1777.27	1783.70	37.0275	
295.420		1772.14		1774.85	1774.85	1774.85	1781.35	1774.85	1781.35	-9.21541	
295.400		1777.00		1772.43	1772.43	1772.43	1779.00	1772.43	1779.00	-2.00753	
295.380		1827.30		1770.02	1770.02	1770.02	1776.67	1770.02	1776.67	50.6317	
295.360		1905.62		1767.55	1767.55	1767.55	1774.28	1767.55	1774.28	131.337	
295.340		1822.73		1765.01	1765.01	1765.01	1771.81	1765.01	1771.81	50.9185	
295.320		1902.48		1762.40	1762.40	1762.40	1769.28	1762.40	1769.28	133.197	
295.300		1909.62		1759.94	1759.94	1759.94	1766.90	1759.94	1766.90	142.722	
295.280		1934.49		1757.46	1757.46	1757.46	1764.50	1757.46	1764.50	169.993	
295.260		1872.18		1754.79	1754.79	1754.79	1761.91	1754.79	1761.91	110.270	
295.240		1830.45		1752.11	1752.11	1752.11	1759.31	1752.11	1759.31	71.1410	
295.220		1823.30		1749.56	1749.56	1749.56	1756.83	1749.56	1756.83	66.4675	
295.200		1811.01		1747.08	1747.08	1747.08	1754.44	1747.08	1754.44	56.5715	
295.180		1787.86		1744.58	1744.58	1744.58	1752.02	1744.58	1752.02	35.8402	
295.160		1785.29		1741.93	1741.93	1741.93	1749.46	1741.93	1749.46	35.8300	
295.140		1821.01		1739.20	1739.20	1739.20	1746.81	1739.20	1746.81	74.2069	
295.120		1829.30		1736.45	1736.45	1736.45	1744.14	1736.45	1744.14	85.1606	
295.100		1862.17		1733.70	1733.70	1733.70	1741.48	1733.70	1741.48	120.690	
295.080		1732.41		1731.11	1731.11	1731.11	1738.98	1731.11	1738.98	-6.57379	
295.060		1826.73		1728.52	1728.52	1728.52	1736.48	1728.52	1736.48	90.2486	
295.040		1892.19		1726.00	1726.00	1726.00	1734.05	1726.00	1734.05	158.131	
295.020		1864.46		1723.62	1723.62	1723.62	1731.77	1723.62	1731.77	132.695	
295.000		1785.29		1721.34	1721.34	1721.34	1729.58	1721.34	1729.58	55.7064	
294.980		1788.14		1719.12	1719.12	1719.12	1727.46	1719.12	1727.46	60.6863	
294.960		1841.59		1716.94	1716.94	1716.94	1725.37	1716.94	1725.37	116.222	
294.940		1904.19		1714.73	1714.73	1714.73	1723.26	1714.73	1723.26	180.933	
294.920		1798.72		1712.48	1712.48	1712.48	1721.11	1712.48	1721.11	77.6080	
294.900		1733.55		1710.13	1710.13	1710.13	1718.86	1710.13	1718.86	14.6899	
294.880		1761.85		1707.73	1707.73	1707.73	1716.56	1707.73	1716.56	45.2889	
294.860		1692.96		1705.38	1705.38	1705.38	1714.32	1705.38	1714.32	-21.3576	
294.840		1762.99		1703.17	1703.17	1703.17	1712.22	1703.17	1712.22	50.7748	
294.820		1776.71		1701.12	1701.12	1701.12	1710.27	1701.12	1710.27	66.4384	
294.800		1719.54		1699.09	1699.09	1699.09	1708.35	1699.09	1708.35	11.1990	
294.780		1781.57		1697.10	1697.10	1697.10	1706.47	1697.10	1706.47	75.0961	
294.760		1760.13		1695.24	1695.24	1695.24	1704.73	1695.24	1704.73	55.4024	
294.740		1747.56		1693.54	1693.54	1693.54	1703.14	1693.54	1703.14	44.4122	
294.720		1805.01		1691.77	1691.77	1691.77	1701.49	1691.77	1701.49	103.516	
294.700		1795.29		1689.98	1689.98	1689.98	1699.82	1689.98	1699.82	95.4674	
294.680		1843.59		1688.19	1688.19	1688.19	1698.16	1688.19	1698.16	145.437	
294.660		1786.43		1686.60	1686.60	1686.60	1696.68	1686.60	1696.68	89.7453	
294.640		1708.40		1685.06	1685.06	1685.06	1695.27	1685.06	1695.27	13.1244	
294.620		1649.23		1683.57	1683.57	1683.57	1693.91	1683.57	1693.91	-44.6838	
294.600		1658.66		1682.03	1682.03	1682.03	1692.51	1682.03	1692.51	-33.8452	
294.580		1672.95		1680.38	1680.38	1680.38	1690.99	1680.38	1690.99	-18.0339	
294.560		1731.84		1678.80	1678.80	1678.80	1689.55	1678.80	1689.55	42.2892	
294.540		1724.98		1677.39	1677.39	1677.39	1688.28	1677.39	1688.28	36.6955	
294.520		1672.10		1676.02	1676.02	1676.02	1687.06	1676.02	1687.06	-14.9610	
294.500		1815.58		1674.76	1674.76	1674.76	1685.94	1674.76	1685.94	129.642	
294.480		1769.85		1673.58	1673.58	1673.58	1684.91	1673.58	1684.91	84.9403	
294.460		1800.72		1672.45	1672.45	1672.45	1683.94	1672.45	1683.94	116.784	
294.440		1681.24		1671.45	1671.45	1671.45	1683.09	1671.45	1683.09	-1.84129	
294.420		1704.40		1670.57	1670.57	1670.57	1682.37	1670.57	1682.37	22.0285	
294.400		1652.38		1669.86	1669.86	1669.86	1681.82	1669.86	1681.82	-29.4437	
294.380		1779.85		1669.22	1669.22	1669.22	1681.35	1669.22	1681.35	98.5078	
294.360		1775.00		1668.62	1668.62	1668.62	1680.92	1668.62	1680.92	94.0735	
294.340		1654.95		1668.00	1668.00	1668.00	1680.48	1668.00	1680.48	-25.5315	
294.320		1573.20		1667.34	1667.34	1667.34	1680.00	1667.34	1680.00	-106.796	
294.300		1649.52		1666.68	1666.68	1666.68	1679.52	1666.68	1679.52	-30.0002	
294.280		1652.66		1666.04	1666.04	1666.04	1679.06	1666.04	1679.06	-26.3972	
294.260		1652.66		1665.43	1665.43	1665.43	1678.64	1665.43	1678.64	-25.9822	
294.240		1669.81		1664.79	1664.79	1664.79	1678.20	1664.79	1678.20	-8.38628	
294.220		1664.38		1664.26	1664.26	1664.26	1677.87	1664.26	1677.87	-13.4862	
294.200		1646.09		1663.81	1663.81	1663.81	1677.62	1663.81	1677.62	-31.5372	
294.180		1662.38		1663.46	1663.46	1663.46	1677.48	1663.46	1677.48	-15.1052	
294.160		1699.54		1663.14	1663.14	1663.14	1677.38	1663.14	1677.38	22.1538	
294.140		1652.09		1662.81	1662.81	1662.81	1677.27	1662.81	1677.27	-25.1820	
294.120		1658.38		1662.48	1662.48	1662.48	1677.18	1662.48	1677.18	-18.8004	
294.100		1688.10		1662.35	1662.35	1662.35	1677.28	1662.35	1677.28	10.8263	
294.080		1660.66		1662.27	1662.27	1662.27	1677.44	1662.27	1677.44	-16.7751	
294.060		1701.82		1662.10	1662.10	1662.10	1677.51	1662.10	1677.51	24.3102	
294.040		1672.67		1661.77	1661.77	1661.77	1677.43	1661.77	1677.43	-4.76467	
294.020		1694.68		1661.41	1661.41	1661.41	1677.33	1661.41	1677.33	17.3460	
294.000		1693.53		1661.10	1661.10	1661.10	1677.29	1661.10	1677.29	16.2431	
293.980		1676.38		1660.79	1660.79	1660.79	1677.26	1660.79	1677.26	-0.872681	
293.960		1695.82		1660.49	1660.49	1660.49	1677.24	1660.49	1677.24	18.5842	
293.940		1641.23		1660.29	1660.29	1660.29	1677.32	1660.29	1677.32	-36.0946	
293.920		1713.26		1660.12	1660.12	1660.12	1677.45	1660.12	1677.45	35.8045	
293.900		1632.94		1659.83	1659.83	1659.83	1677.47	1659.83	1677.47	-44.5343	
293.880		1589.21		1659.58	1659.58	1659.58	1677.53	1659.58	1677.53	-88.3257	
293.860		1716.69		1659.25	1659.25	1659.25	1677.53	1659.25	1677.53	39.1551	
293.840		1745.56		1658.90	1658.90	1658.90	1677.52	1658.90	1677.52	68.0344	
293.820		1726.98		1658.56	1658.56	1658.56	1677.52	1658.56	1677.52	49.4589	
293.800		1671.24		1658.21	1658.21	1658.21	1677.52	1658.21	1677.52	-6.28331	
293.780		1591.78		1657.92	1657.92	1657.92	1677.60	1657.92	1677.60	-85.8227	
293.760		1647.23		1657.68	1657.68	1657.68	1677.75	1657.68	1677.75	-30.5163	
293.740		1657.81		1657.50	1657.50	1657.50	1677.95	1657.50	1677.95	-20.1446	
293.720		1561.77		1657.37	1657.37	1657.37	1678.23	1657.37	1678.23	-116.458	
293.700		1606.64		1657.33	1657.33	1657.33	1678.60	1657.33	1678.60	-71.9616	
293.680		1774.14		1657.30	1657.30	1657.30	1679.00	1657.30	1679.00	95.1426	
293.660		1664.67		1657.26	1657.26	1657.26	1679.40	1657.26	1679.40	-14.7337	
293.640		1715.83		1657.22	1657.22	1657.22	1679.82	1657.22	1679.82	36.0103	
293.620		1670.67		1657.18	1657.18	1657.18	1680.25	1657.18	1680.25	-9.58510	
293.600		1684.10		1657.14	1657.14	1657.14	1680.70	1657.14	1680.70	3.40098	
293.580		1655.23		1657.10	1657.10	1657.10	1681.17	1657.10	1681.17	-25.9328	
293.560		1633.51		1657.06	1657.06	1657.06	1681.65	1657.06	1681.65	-48.1391	
293.540		1614.07		1657.02	1657.02	1657.02	1682.15	1657.02	1682.15	-68.0775	
293.520		1643.23		1656.98	1656.98	1656.98	1682.67	1656.98	1682.67	-39.4440	
293.500		1631.80		1656.94	1656.94	1656.94	1683.21	1656.94	1683.21	-51.4166	
293.480		1548.91		1656.90	1656.90	1656.90	1683.77	1656.90	1683.77	-134.866	
293.460		1718.40		1656.86	1656.86	1656.86	1684.35	1656.86	1684.35	34.0504	
293.440		1718.69		1656.82	1656.82	1656.82	1684.95	1656.82	1684.95	33.7359	
293.420		1671.81		1656.78	1656.78	1656.78	1685.57	1656.78	1685.57	-13.7623	
293.400		1633.80		1656.73	1656.73	1656.73	1686.22	1656.73	1686.22	-52.4259	
293.380		1727.26		1656.69	1656.69	1656.69	1686.89	1656.69	1686.89	40.3676	
293.360		1677.81		1656.65	1656.65	1656.65	1687.59	1656.65	1687.59	-9.78030	
293.340		1690.10		1656.61	1656.61	1656.61	1688.32	1656.61	1688.32	1.78490	
293.320		1684.10		1656.56	1656.56	1656.56	1689.07	1656.56	1689.07	-4.96943	
293.300		1654.66		1656.52	1656.52	1656.52	1689.85	1656.52	1689.85	-35.1900	
293.280		1652.09		1656.47	1656.47	1656.47	1690.66	1656.47	1690.66	-38.5729	
293.260		1678.67		1656.43	1656.43	1656.43	1691.50	1656.43	1691.50	-12.8310	
293.240		1685.82		1656.38	1656.38	1656.38	1692.37	1656.38	1692.37	-6.55755	
293.220		1647.52		1656.33	1656.33	1656.33	1693.28	1656.33	1693.28	-45.7629	
293.200		1661.24		1656.27	1656.27	1656.27	1694.21	1656.27	1694.22	-32.9793	
293.180		1658.09		1656.22	1656.22	1656.22	1695.19	1656.22	1695.19	-37.0970	
293.160		1707.25		1656.17	1656.17	1656.17	1696.20	1656.17	1696.20	11.0537	
293.140		1651.52		1656.11	1656.11	1656.11	1697.25	1656.11	1697.25	-45.7333	
293.120		1730.98		1656.06	1656.06	1656.06	1698.34	1656.06	1698.34	32.6382	
293.100		1771.28		1656.00	1656.00	1656.00	1699.47	1656.00	1699.47	71.8089	
293.080		1706.68		1655.94	1655.94	1655.94	1700.64	1655.94	1700.65	6.03763	
293.060		1637.80		1655.88	1655.88	1655.89	1701.86	1655.88	1701.86	-64.0664	
293.040		1717.54		1655.82	1655.82	1655.83	1703.13	1655.82	1703.13	14.4129	
293.020		1684.39		1655.76	1655.76	1655.77	1704.44	1655.76	1704.44	-20.0562	
293.000		1740.70		1655.70	1655.70	1655.70	1705.80	1655.70	1705.81	34.8913	
292.980		1750.70		1655.64	1655.64	1655.64	1707.21	1655.64	1707.22	43.4828	
292.960		1676.67		1655.57	1655.57	1655.58	1708.68	1655.57	1708.68	-32.0125	
292.940		1714.69		1655.50	1655.50	1655.51	1710.19	1655.50	1710.20	4.48351	
292.920		1723.55		1655.43	1655.43	1655.44	1711.77	1655.43	1711.78	11.7712	
