?
Axis	Energy	Elements=	1361
Axis	Position	Elements=	1
Axis	X	Elements=	1
Axis	Y	Elements=	1

C:\Users\AG Wittstock\Documents\Iza\06_27.01.2017\AgProbe_01\Mono 250µm\Multi Point\Ion Beam Etch\Wait Object\Survey.VGD


	Position (Pos)\	Pt #002	
	X (X)\µm	22667.7	
	Y (Y)\µm	7958.70	
Binding Energy (E)	
eV		Counts / s
1350.00		4409.04	
1349.00		4888.76	
1348.00		4295.58	
1347.00		4320.08	
1346.00		3988.35	
1345.00		3907.23	
1344.00		3912.65	
1343.00		3901.20	
1342.00		4028.11	
1341.00		3481.12	
1340.00		3779.52	
1339.00		3970.68	
1338.00		3690.36	
1337.00		3572.09	
1336.00		3867.47	
1335.00		3906.63	
1334.00		3784.94	
1333.00		3580.52	
1332.00		3896.99	
1331.00		3632.33	
1330.00		4042.57	
1329.00		4039.56	
1328.00		3349.40	
1327.00		3622.49	
1326.00		3733.53	
1325.00		3730.72	
1324.00		3596.18	
1323.00		3368.47	
1322.00		3670.28	
1321.00		3384.14	
1320.00		3427.31	
1319.00		3565.46	
1318.00		3462.85	
1317.00		3748.19	
1316.00		3228.11	
1315.00		2709.04	
1314.00		3170.28	
1313.00		3159.64	
1312.00		3203.21	
1311.00		3061.04	
1310.00		3681.73	
1309.00		3263.45	
1308.00		3199.60	
1307.00		3471.49	
1306.00		3117.67	
1305.00		3313.45	
1304.00		3395.58	
1303.00		3258.63	
1302.00		2997.79	
1301.00		3030.32	
1300.00		3106.02	
1299.00		3488.96	
1298.00		3285.74	
1297.00		3368.07	
1296.00		3080.32	
1295.00		2975.30	
1294.00		3077.91	
1293.00		2988.55	
1292.00		3386.95	
1291.00		3434.14	
1290.00		3043.98	
1289.00		2864.26	
1288.00		3060.44	
1287.00		3234.74	
1286.00		3460.24	
1285.00		3017.07	
1284.00		3065.26	
1283.00		3137.95	
1282.00		2712.65	
1281.00		2686.75	
1280.00		2757.03	
1279.00		2835.14	
1278.00		2807.63	
1277.00		2813.65	
1276.00		2730.92	
1275.00		2790.36	
1274.00		2684.14	
1273.00		3053.01	
1272.00		2950.40	
1271.00		2693.78	
1270.00		2933.33	
1269.00		2902.41	
1268.00		2880.12	
1267.00		2460.84	
1266.00		2693.78	
1265.00		2776.51	
1264.00		2793.17	
1263.00		2867.67	
1262.00		2774.50	
1261.00		2690.56	
1260.00		2704.42	
1259.00		3032.13	
1258.00		2723.90	
1257.00		2676.91	
1256.00		2807.63	
1255.00		2589.16	
1254.00		2738.55	
1253.00		2654.42	
1252.00		2622.89	
1251.00		2558.03	
1250.00		3007.23	
1249.00		2654.02	
1248.00		2780.32	
1247.00		2578.71	
1246.00		2724.30	
1245.00		2577.51	
1244.00		3073.69	
1243.00		2636.95	
1242.00		2589.76	
1241.00		2400.60	
1240.00		2594.78	
1239.00		2572.89	
1238.00		3011.24	
1237.00		2716.67	
1236.00		2683.33	
1235.00		2713.25	
1234.00		2843.37	
1233.00		2809.24	
1232.00		2584.14	
1231.00		2680.12	
1230.00		2644.18	
1229.00		2700.60	
1228.00		2706.83	
1227.00		2811.65	
1226.00		2506.83	
1225.00		2702.81	
1224.00		2499.00	
1223.00		2339.96	
1222.00		2347.19	
1221.00		2444.18	
1220.00		2792.17	
1219.00		2408.03	
1218.00		2386.75	
1217.00		2197.59	
1216.00		2402.21	
1215.00		1991.37	
1214.00		2095.78	
1213.00		2264.66	
1212.00		1970.48	
1211.00		2527.31	
1210.00		2317.47	
1209.00		2078.31	
1208.00		2371.69	
1207.00		2127.11	
1206.00		2205.62	
1205.00		2375.50	
1204.00		2169.48	
1203.00		2350.40	
1202.00		2521.29	
1201.00		2846.79	
1200.00		2867.67	
1199.00		2623.09	
1198.00		2821.69	
1197.00		2595.38	
1196.00		2839.56	
1195.00		2853.01	
1194.00		2439.36	
1193.00		2574.30	
1192.00		2446.99	
1191.00		2594.98	
1190.00		2439.96	
1189.00		2485.94	
1188.00		2472.49	
1187.00		2189.76	
1186.00		2664.86	
1185.00		2492.97	
1184.00		2334.74	
1183.00		2022.89	
1182.00		2167.47	
1181.00		2003.41	
1180.00		2125.90	
1179.00		2066.47	
1178.00		1849.80	
1177.00		1546.79	
1176.00		1849.40	
1175.00		1825.90	
1174.00		1598.59	
1173.00		1931.33	
1172.00		1812.25	
1171.00		1868.67	
1170.00		1890.96	
1169.00		1587.75	
1168.00		1581.93	
1167.00		1474.50	
1166.00		1638.15	
1165.00		1835.54	
1164.00		1347.19	
1163.00		1509.24	
1162.00		1263.45	
1161.00		1691.97	
1160.00		1432.53	
1159.00		1491.37	
1158.00		1362.05	
1157.00		1444.18	
1156.00		1861.65	
1155.00		1664.66	
1154.00		1515.46	
1153.00		1832.13	
1152.00		2017.87	
1151.00		1743.78	
1150.00		1720.68	
1149.00		1534.14	
1148.00		1887.95	
1147.00		2039.56	
1146.00		1921.69	
1145.00		1909.04	
1144.00		1616.47	
1143.00		1751.41	
1142.00		2193.17	
1141.00		2160.04	
1140.00		1986.14	
1139.00		2513.05	
1138.00		2607.23	
1137.00		2541.77	
1136.00		3045.98	
1135.00		4073.69	
1134.00		3749.00	
1133.00		2911.04	
1132.00		3074.50	
1131.00		2200.40	
1130.00		2504.42	
1129.00		3004.02	
1128.00		2394.78	
1127.00		1834.94	
1126.00		1493.37	
1125.00		1159.24	
1124.00		1264.46	
1123.00		1228.71	
1122.00		1125.70	
1121.00		992.570	
1120.00		1001.00	
1119.00		917.871	
1118.00		1017.27	
1117.00		1100.80	
1116.00		983.936	
1115.00		982.731	
1114.00		918.876	
1113.00		1015.26	
1112.00		1132.93	
1111.00		961.847	
1110.00		823.092	
1109.00		962.450	
1108.00		971.888	
1107.00		809.036	
1106.00		811.044	
1105.00		814.458	
1104.00		849.197	
1103.00		926.305	
1102.00		1074.30	
1101.00		1109.84	
1100.00		1043.78	
1099.00		953.815	
1098.00		1149.80	
1097.00		1073.49	
1096.00		907.631	
1095.00		986.345	
1094.00		977.711	
1093.00		1046.59	
1092.00		1091.77	
1091.00		1119.88	
1090.00		1027.31	
1089.00		918.876	
1088.00		1114.46	
1087.00		1078.31	
1086.00		868.876	
1085.00		1109.84	
1084.00		936.345	
1083.00		871.084	
1082.00		1082.93	
1081.00		1090.96	
1080.00		1049.80	
1079.00		939.558	
1078.00		862.851	
1077.00		903.414	
1076.00		796.787	
1075.00		958.233	
1074.00		983.735	
1073.00		975.100	
1072.00		824.699	
1071.00		991.365	
1070.00		994.378	
1069.00		1054.42	
1068.00		929.116	
1067.00		1049.00	
1066.00		878.514	
1065.00		940.964	
1064.00		992.169	
1063.00		1174.10	
1062.00		1213.65	
1061.00		855.622	
1060.00		1151.41	
1059.00		954.418	
1058.00		804.217	
1057.00		969.076	
1056.00		1076.71	
1055.00		873.494	
1054.00		1106.22	
1053.00		1141.77	
1052.00		1015.26	
1051.00		1029.72	
1050.00		1052.41	
1049.00		1011.45	
1048.00		1063.65	
1047.00		989.157	
1046.00		978.112	
1045.00		951.004	
1044.00		850.000	
1043.00		1066.06	
1042.00		1029.32	
1041.00		966.466	
1040.00		959.839	
1039.00		876.707	
1038.00		946.386	
1037.00		931.928	
1036.00		1099.60	
1035.00		884.137	
1034.00		677.108	
1033.00		975.502	
1032.00		1059.24	
1031.00		984.940	
1030.00		1095.58	
1029.00		901.406	
1028.00		949.799	
1027.00		1447.59	
1026.00		1023.90	
1025.00		951.004	
1024.00		760.040	
1023.00		881.526	
1022.00		900.602	
1021.00		966.867	
1020.00		1003.41	
1019.00		1031.93	
1018.00		973.695	
1017.00		914.659	
1016.00		942.570	
1015.00		974.900	
1014.00		1242.57	
1013.00		1079.52	
1012.00		743.173	
1011.00		1010.24	
1010.00		993.574	
1009.00		917.068	
1008.00		926.908	
1007.00		966.867	
1006.00		939.357	
1005.00		1046.79	
1004.00		1179.72	
1003.00		858.233	
1002.00		933.735	
1001.00		1136.95	
1000.00		919.277	
999.000		922.088	
998.000		1034.74	
997.000		1122.49	
996.000		836.345	
995.000		979.317	
994.000		1090.56	
993.000		982.932	
992.000		966.867	
991.000		968.474	
990.000		1072.29	
989.000		1066.47	
988.000		1030.92	
987.000		810.040	
986.000		799.398	
985.000		909.036	
984.000		985.141	
983.000		827.108	
982.000		845.783	
981.000		916.466	
980.000		1030.72	
979.000		1052.21	
978.000		891.968	
977.000		1036.55	
976.000		999.598	
975.000		826.707	
974.000		1139.96	
973.000		967.871	
972.000		924.096	
971.000		759.839	
970.000		819.277	
969.000		858.434	
968.000		1028.92	
967.000		925.100	
966.000		988.153	
965.000		935.743	
964.000		988.554	
963.000		838.153	
962.000		1098.59	
961.000		995.181	
960.000		1026.10	
959.000		1040.76	
958.000		1157.23	
957.000		1189.16	
956.000		1066.67	
955.000		1177.11	
954.000		929.719	
953.000		823.695	
952.000		795.582	
951.000		878.112	
950.000		985.944	
949.000		1097.19	
948.000		973.695	
947.000		855.622	
946.000		903.614	
945.000		933.534	
944.000		971.084	
943.000		944.177	
942.000		991.566	
941.000		910.040	
940.000		938.353	
939.000		754.819	
938.000		815.261	
937.000		799.799	
936.000		958.233	
935.000		778.112	
934.000		842.771	
933.000		688.353	
932.000		869.076	
931.000		812.651	
930.000		1013.86	
929.000		961.044	
928.000		841.566	
927.000		1025.30	
926.000		1020.68	
925.000		1091.57	
924.000		895.382	
923.000		861.647	
922.000		980.120	
921.000		973.695	
920.000		1163.86	
919.000		1187.35	
918.000		1105.42	
917.000		1146.79	
916.000		1143.78	
915.000		1080.12	
914.000		974.096	
913.000		1124.10	
912.000		983.936	
911.000		1041.97	
910.000		870.080	
909.000		950.000	
908.000		1099.20	
907.000		1104.42	
906.000		994.177	
905.000		1098.19	
904.000		955.823	
903.000		948.996	
902.000		1163.45	
901.000		1189.56	
900.000		1075.50	
899.000		870.482	
898.000		808.835	
897.000		711.847	
896.000		766.064	
895.000		1065.46	
894.000		779.719	
893.000		916.667	
892.000		944.177	
891.000		999.197	
890.000		1016.87	
889.000		986.145	
888.000		1136.95	
887.000		1194.58	
886.000		1024.70	
885.000		998.795	
884.000		1086.55	
883.000		925.904	
882.000		885.341	
881.000		920.080	
880.000		969.277	
879.000		874.498	
878.000		892.570	
877.000		1007.03	
876.000		997.791	
875.000		904.418	
874.000		962.048	
873.000		940.562	
872.000		959.036	
871.000		869.679	
870.000		1038.55	
869.000		1006.43	
868.000		781.928	
867.000		1012.65	
866.000		1131.53	
865.000		932.932	
864.000		870.281	
863.000		949.598	
862.000		904.016	
861.000		1211.45	
860.000		1263.25	
859.000		1008.03	
858.000		1065.66	
857.000		1040.16	
856.000		1286.75	
855.000		856.627	
854.000		887.550	
853.000		784.940	
852.000		989.558	
851.000		1090.36	
850.000		1013.45	
849.000		1034.94	
848.000		1047.39	
847.000		920.281	
846.000		956.225	
845.000		986.145	
844.000		735.141	
843.000		930.321	
842.000		1268.88	
841.000		1259.44	
840.000		1022.89	
839.000		1066.67	
838.000		831.526	
837.000		1017.87	
836.000		1023.90	
835.000		1083.94	
834.000		1204.82	
833.000		1207.23	
832.000		1053.41	
831.000		787.149	
830.000		946.787	
829.000		1015.86	
828.000		1111.04	
827.000		1132.33	
826.000		1117.87	
825.000		1309.04	
824.000		1132.13	
823.000		1244.58	
822.000		1067.87	
821.000		1188.76	
820.000		1095.18	
819.000		1313.45	
818.000		1265.46	
817.000		999.799	
816.000		1084.34	
815.000		1077.31	
814.000		1077.51	
813.000		952.610	
812.000		967.871	
811.000		1050.40	
810.000		1258.43	
809.000		1039.36	
808.000		1030.32	
807.000		1341.57	
806.000		1131.53	
805.000		1217.47	
804.000		911.446	
803.000		1209.04	
802.000		1175.10	
801.000		1075.30	
800.000		727.711	
799.000		877.711	
798.000		995.984	
797.000		1338.15	
796.000		941.968	
795.000		1049.00	
794.000		1196.18	
793.000		1070.28	
792.000		1189.96	
791.000		1148.59	
790.000		1121.69	
789.000		1123.29	
788.000		1224.70	
787.000		1237.75	
786.000		1328.71	
785.000		1251.41	
784.000		1020.48	
783.000		999.197	
782.000		1198.59	
781.000		1335.94	
780.000		1107.43	
779.000		1100.20	
778.000		1176.51	
777.000		1111.04	
776.000		1359.84	
775.000		1131.12	
774.000		1187.75	
773.000		960.040	
772.000		990.161	
771.000		1233.13	
770.000		937.550	
769.000		1166.87	
768.000		1201.00	
767.000		1006.43	
766.000		1037.35	
765.000		1145.18	
764.000		1334.94	
763.000		1326.10	
762.000		1215.46	
761.000		1034.54	
760.000		1368.88	
759.000		974.699	
758.000		1166.27	
757.000		1037.55	
756.000		961.847	
755.000		1135.74	
754.000		1099.00	
753.000		918.072	
752.000		1231.73	
751.000		1290.16	
750.000		992.570	
749.000		882.329	
748.000		813.052	
747.000		1032.73	
746.000		1153.21	
745.000		1083.94	
744.000		1308.63	
743.000		1093.57	
742.000		1065.06	
741.000		1257.83	
740.000		1158.03	
739.000		1034.14	
738.000		1099.80	
737.000		1142.57	
736.000		1067.67	
735.000		1229.72	
734.000		1222.89	
733.000		1292.37	
732.000		1332.33	
731.000		1316.87	
730.000		1291.16	
729.000		1254.02	
728.000		1355.02	
727.000		1231.12	
726.000		1297.99	
725.000		1179.32	
724.000		1153.21	
723.000		1291.16	
722.000		1514.26	
721.000		1467.47	
720.000		1530.52	
719.000		1541.97	
718.000		1487.35	
717.000		1366.06	
716.000		1488.35	
715.000		1304.42	
714.000		1092.77	
713.000		1091.77	
712.000		1234.74	
711.000		1212.45	
710.000		1235.34	
709.000		1345.78	
708.000		1186.75	
707.000		976.104	
706.000		1230.52	
705.000		1130.52	
704.000		1105.82	
703.000		1003.82	
702.000		1273.90	
701.000		1076.71	
700.000		1227.91	
699.000		1043.57	
698.000		975.301	
697.000		1113.65	
696.000		1205.42	
695.000		1050.40	
694.000		1156.83	
693.000		1169.08	
692.000		1100.40	
691.000		1254.02	
690.000		1066.87	
689.000		993.976	
688.000		1008.43	
687.000		1050.00	
686.000		1183.13	
685.000		1123.90	
684.000		1050.00	
683.000		1113.45	
682.000		969.679	
681.000		1038.35	
680.000		1250.40	
679.000		1197.19	
678.000		1199.00	
677.000		1405.62	
676.000		1215.66	
675.000		1088.55	
674.000		1134.14	
673.000		1268.88	
672.000		1095.38	
671.000		1084.14	
670.000		1023.69	
669.000		1150.40	
668.000		1223.49	
667.000		1136.75	
666.000		1205.42	
665.000		1213.86	
664.000		1266.67	
663.000		1079.72	
662.000		1120.68	
661.000		1190.16	
660.000		1216.06	
659.000		1387.15	
658.000		1129.12	
657.000		1258.84	
656.000		992.570	
655.000		1222.49	
654.000		1018.27	
653.000		1079.12	
652.000		1006.22	
651.000		1165.06	
650.000		1019.28	
649.000		958.635	
648.000		982.932	
647.000		1002.61	
646.000		1037.75	
645.000		1106.83	
644.000		1365.26	
643.000		1656.83	
642.000		1208.23	
641.000		1047.19	
640.000		1018.07	
639.000		1193.17	
638.000		1311.85	
637.000		955.823	
636.000		1184.74	
635.000		1407.23	
634.000		1208.03	
633.000		1206.22	
632.000		1059.04	
631.000		1250.80	
630.000		1179.92	
629.000		1244.38	
628.000		1204.02	
627.000		1204.22	
626.000		1244.18	
625.000		1124.90	
624.000		1300.80	
623.000		1319.28	
622.000		1294.78	
621.000		1302.41	
620.000		1214.46	
619.000		1025.50	
618.000		1111.04	
617.000		1256.43	
616.000		1326.71	
615.000		1213.45	
614.000		1187.75	
613.000		1435.74	
612.000		1362.85	
611.000		1355.42	
610.000		1554.02	
609.000		1436.14	
608.000		1274.70	
607.000		1662.05	
606.000		1910.44	
605.000		2396.79	
604.000		2308.03	
603.000		2229.72	
602.000		1514.46	
601.000		1584.34	
600.000		1073.90	
599.000		1123.69	
598.000		1232.33	
597.000		1137.55	
596.000		1099.20	
595.000		1111.45	
594.000		1261.65	
593.000		1154.82	
592.000		1068.88	
591.000		1189.56	
590.000		1204.62	
589.000		1321.89	
588.000		1262.05	
587.000		1271.08	
586.000		1286.95	
585.000		1192.57	
584.000		1301.61	
583.000		1230.12	
582.000		1117.67	
581.000		1333.73	
580.000		1100.60	
579.000		1273.90	
578.000		1237.95	
577.000		1528.31	
576.000		2032.33	
575.000		2313.05	
574.000		2989.16	
573.000		2720.88	
572.000		2473.90	
571.000		1831.33	
570.000		1083.73	
569.000		1110.04	
568.000		975.502	
567.000		966.265	
566.000		872.490	
565.000		842.570	
564.000		991.566	
563.000		988.956	
562.000		943.574	
561.000		904.819	
560.000		753.614	
559.000		839.157	
558.000		810.241	
557.000		777.711	
556.000		683.534	
555.000		901.004	
554.000		877.510	
553.000		752.008	
552.000		826.104	
551.000		792.169	
550.000		998.996	
549.000		775.100	
548.000		850.000	
547.000		776.104	
546.000		773.092	
545.000		776.506	
544.000		764.659	
543.000		789.357	
542.000		721.888	
541.000		808.434	
540.000		788.153	
539.000		685.944	
538.000		813.052	
537.000		922.490	
536.000		869.880	
535.000		818.273	
534.000		877.309	
533.000		782.329	
532.000		859.036	
531.000		748.193	
530.000		646.185	
529.000		728.514	
528.000		884.739	
527.000		684.337	
526.000		900.000	
525.000		747.390	
524.000		877.510	
523.000		879.719	
522.000		826.104	
521.000		1064.46	
520.000		738.755	
519.000		807.229	
518.000		826.908	
517.000		865.663	
516.000		895.582	
515.000		829.518	
514.000		788.353	
513.000		987.349	
512.000		836.948	
511.000		872.892	
510.000		904.418	
509.000		745.382	
508.000		874.498	
507.000		821.888	
506.000		1048.19	
505.000		1001.41	
504.000		882.932	
503.000		921.687	
502.000		786.345	
501.000		822.289	
500.000		890.763	
499.000		822.490	
498.000		884.337	
497.000		828.715	
496.000		646.586	
495.000		915.663	
494.000		957.229	
493.000		794.779	
492.000		660.442	
491.000		814.859	
490.000		649.197	
489.000		870.683	
488.000		758.835	
487.000		989.960	
486.000		932.129	
485.000		854.618	
484.000		1070.68	
483.000		805.221	
482.000		652.209	
481.000		877.711	
480.000		1034.94	
479.000		971.687	
478.000		994.779	
477.000		1289.36	
476.000		967.671	
475.000		787.952	
474.000		883.735	
473.000		853.012	
472.000		1041.37	
471.000		878.715	
470.000		876.707	
469.000		850.000	
468.000		764.056	
467.000		807.831	
466.000		889.960	
465.000		901.606	
464.000		843.373	
463.000		791.365	
462.000		750.602	
461.000		1135.74	
460.000		991.165	
459.000		754.819	
458.000		764.056	
457.000		802.209	
456.000		950.000	
455.000		1093.57	
454.000		940.361	
453.000		869.277	
452.000		906.225	
451.000		993.173	
450.000		873.494	
449.000		1172.09	
448.000		918.273	
447.000		1036.14	
446.000		989.558	
445.000		1031.33	
444.000		1237.75	
443.000		1069.48	
442.000		1146.59	
441.000		873.896	
440.000		1043.17	
439.000		869.880	
438.000		717.871	
437.000		811.847	
436.000		687.149	
435.000		970.884	
434.000		1051.00	
433.000		844.779	
432.000		998.996	
431.000		948.996	
430.000		921.084	
429.000		804.819	
428.000		1049.60	
427.000		976.104	
426.000		968.273	
425.000		879.719	
424.000		1019.88	
423.000		887.349	
422.000		1025.50	
421.000		883.936	
420.000		940.161	
419.000		905.622	
418.000		1113.05	
417.000		1061.04	
416.000		957.631	
415.000		929.317	
414.000		995.582	
413.000		1105.62	
412.000		1055.22	
411.000		1003.41	
410.000		686.747	
409.000		1036.14	
408.000		954.016	
407.000		955.020	
406.000		1154.02	
405.000		1270.08	
404.000		1120.28	
403.000		1083.33	
402.000		1142.77	
401.000		1091.77	
400.000		1151.81	
399.000		1031.33	
398.000		1195.78	
397.000		1323.49	
396.000		1240.56	
395.000		991.566	
394.000		1301.20	
393.000		1318.27	
392.000		988.153	
391.000		1089.96	
390.000		1245.18	
389.000		1043.17	
388.000		1279.12	
387.000		1432.73	
386.000		1149.00	
385.000		1125.90	
384.000		1001.61	
383.000		1201.81	
382.000		1365.06	
381.000		1282.73	
380.000		1341.97	
379.000		1445.98	
378.000		1201.81	
377.000		1391.16	
376.000		2579.92	
375.000		4689.36	
374.000		5055.42	
373.000		2496.99	
372.000		1227.51	
371.000		1360.84	
370.000		2521.08	
369.000		5091.97	
368.000		6099.20	
367.000		2738.96	
366.000		668.474	
365.000		405.221	
364.000		342.972	
363.000		196.988	
362.000		183.333	
361.000		149.799	
360.000		78.9157	
359.000		85.7430	
358.000		125.502	
357.000		146.185	
356.000		167.068	
355.000		40.3614	
354.000		166.667	
353.000		150.201	
352.000		218.072	
351.000		149.197	
350.000		170.080	
349.000		225.100	
348.000		206.024	
347.000		171.888	
346.000		118.072	
345.000		165.261	
344.000		154.016	
343.000		170.281	
342.000		165.261	
341.000		165.060	
340.000		132.129	
339.000		101.807	
338.000		178.916	
337.000		115.663	
336.000		72.6908	
335.000		147.992	
334.000		117.269	
333.000		140.562	
332.000		106.827	
331.000		195.181	
330.000		182.129	
329.000		179.719	
328.000		176.506	
327.000		116.064	
326.000		122.289	
325.000		106.827	
324.000		101.205	
323.000		77.1084	
322.000		113.052	
321.000		159.237	
320.000		111.446	
319.000		275.301	
318.000		209.438	
317.000		162.048	
316.000		216.064	
