?
Axis	Energy	Elements=	1361
Axis	Position	Elements=	1
Axis	X	Elements=	1
Axis	Y	Elements=	1

C:\Users\AG Wittstock\Documents\Iza\06_27.01.2017\Grosz_03\Mono 500µm\Multi Point\Ion Beam Etch\Wait Object\Survey.VGD


	Position (Pos)\	Pt #003	
	X (X)\µm	22023.6	
	Y (Y)\µm	2940.10	
Binding Energy (E)	
eV		Counts / s
1350.00		518848.	
1349.00		519122.	
1348.00		521315.	
1347.00		512246.	
1346.00		507949.	
1345.00		505864.	
1344.00		502730.	
1343.00		496376.	
1342.00		494999.	
1341.00		493599.	
1340.00		484962.	
1339.00		489274.	
1338.00		483250.	
1337.00		481202.	
1336.00		481553.	
1335.00		479258.	
1334.00		477417.	
1333.00		474843.	
1332.00		469682.	
1331.00		467204.	
1330.00		462672.	
1329.00		457815.	
1328.00		454467.	
1327.00		449062.	
1326.00		447333.	
1325.00		444447.	
1324.00		440335.	
1323.00		441380.	
1322.00		441037.	
1321.00		436492.	
1320.00		430321.	
1319.00		428914.	
1318.00		428801.	
1317.00		429756.	
1316.00		429672.	
1315.00		428198.	
1314.00		426627.	
1313.00		425446.	
1312.00		422622.	
1311.00		420354.	
1310.00		419906.	
1309.00		414801.	
1308.00		418142.	
1307.00		418919.	
1306.00		416758.	
1305.00		415006.	
1304.00		414656.	
1303.00		413635.	
1302.00		407690.	
1301.00		409159.	
1300.00		406947.	
1299.00		407471.	
1298.00		405632.	
1297.00		410657.	
1296.00		409879.	
1295.00		405106.	
1294.00		402142.	
1293.00		402965.	
1292.00		400107.	
1291.00		399025.	
1290.00		399553.	
1289.00		396455.	
1288.00		398969.	
1287.00		394833.	
1286.00		399228.	
1285.00		394231.	
1284.00		392676.	
1283.00		394415.	
1282.00		389769.	
1281.00		392584.	
1280.00		392119.	
1279.00		391521.	
1278.00		390059.	
1277.00		388956.	
1276.00		394069.	
1275.00		393090.	
1274.00		394297.	
1273.00		388664.	
1272.00		391417.	
1271.00		388973.	
1270.00		386260.	
1269.00		390144.	
1268.00		385479.	
1267.00		384688.	
1266.00		383831.	
1265.00		384519.	
1264.00		382321.	
1263.00		385866.	
1262.00		382889.	
1261.00		381997.	
1260.00		385793.	
1259.00		382713.	
1258.00		383347.	
1257.00		384201.	
1256.00		382216.	
1255.00		383174.	
1254.00		381292.	
1253.00		383357.	
1252.00		381594.	
1251.00		381352.	
1250.00		383484.	
1249.00		380486.	
1248.00		381508.	
1247.00		382692.	
1246.00		383567.	
1245.00		383405.	
1244.00		383057.	
1243.00		382655.	
1242.00		383279.	
1241.00		385282.	
1240.00		383726.	
1239.00		382662.	
1238.00		382946.	
1237.00		383322.	
1236.00		385162.	
1235.00		384076.	
1234.00		383398.	
1233.00		382279.	
1232.00		383834.	
1231.00		385333.	
1230.00		385285.	
1229.00		384838.	
1228.00		386111.	
1227.00		386402.	
1226.00		385612.	
1225.00		383249.	
1224.00		382003.	
1223.00		382039.	
1222.00		382918.	
1221.00		383480.	
1220.00		385779.	
1219.00		381680.	
1218.00		385205.	
1217.00		380907.	
1216.00		378840.	
1215.00		376988.	
1214.00		378898.	
1213.00		377277.	
1212.00		373907.	
1211.00		373416.	
1210.00		375038.	
1209.00		373324.	
1208.00		372010.	
1207.00		374048.	
1206.00		372320.	
1205.00		373944.	
1204.00		371774.	
1203.00		374502.	
1202.00		376189.	
1201.00		376973.	
1200.00		373585.	
1199.00		376008.	
1198.00		383241.	
1197.00		383182.	
1196.00		386324.	
1195.00		389263.	
1194.00		383635.	
1193.00		380345.	
1192.00		373845.	
1191.00		369464.	
1190.00		368771.	
1189.00		371549.	
1188.00		364765.	
1187.00		363763.	
1186.00		366322.	
1185.00		366516.	
1184.00		365047.	
1183.00		366609.	
1182.00		364911.	
1181.00		365803.	
1180.00		361646.	
1179.00		366585.	
1178.00		365675.	
1177.00		366714.	
1176.00		368503.	
1175.00		370588.	
1174.00		368492.	
1173.00		364755.	
1172.00		367295.	
1171.00		366477.	
1170.00		364898.	
1169.00		369096.	
1168.00		369628.	
1167.00		370067.	
1166.00		371932.	
1165.00		369417.	
1164.00		367580.	
1163.00		370689.	
1162.00		368863.	
1161.00		367770.	
1160.00		373255.	
1159.00		370725.	
1158.00		369010.	
1157.00		372712.	
1156.00		373998.	
1155.00		373107.	
1154.00		373942.	
1153.00		372894.	
1152.00		373129.	
1151.00		374819.	
1150.00		377546.	
1149.00		375831.	
1148.00		379276.	
1147.00		377508.	
1146.00		373182.	
1145.00		380134.	
1144.00		385511.	
1143.00		385009.	
1142.00		383184.	
1141.00		382031.	
1140.00		381857.	
1139.00		382882.	
1138.00		382090.	
1137.00		383981.	
1136.00		386862.	
1135.00		385910.	
1134.00		388280.	
1133.00		388000.	
1132.00		388469.	
1131.00		387665.	
1130.00		387324.	
1129.00		392761.	
1128.00		391636.	
1127.00		393312.	
1126.00		395008.	
1125.00		396599.	
1124.00		397404.	
1123.00		397883.	
1122.00		396880.	
1121.00		395228.	
1120.00		399769.	
1119.00		399615.	
1118.00		393539.	
1117.00		398304.	
1116.00		400704.	
1115.00		403074.	
1114.00		403083.	
1113.00		403249.	
1112.00		401822.	
1111.00		402266.	
1110.00		407419.	
1109.00		404810.	
1108.00		407233.	
1107.00		406644.	
1106.00		404054.	
1105.00		402414.	
1104.00		406506.	
1103.00		412649.	
1102.00		414166.	
1101.00		420760.	
1100.00		425267.	
1099.00		437895.	
1098.00		451127.	
1097.00		453408.	
1096.00		451003.	
1095.00		441541.	
1094.00		426412.	
1093.00		413701.	
1092.00		404823.	
1091.00		398631.	
1090.00		397167.	
1089.00		393062.	
1088.00		389824.	
1087.00		391171.	
1086.00		387524.	
1085.00		387502.	
1084.00		386802.	
1083.00		387082.	
1082.00		387935.	
1081.00		388992.	
1080.00		388726.	
1079.00		394004.	
1078.00		388329.	
1077.00		388996.	
1076.00		390756.	
1075.00		390844.	
1074.00		400536.	
1073.00		409685.	
1072.00		404211.	
1071.00		395651.	
1070.00		390127.	
1069.00		387620.	
1068.00		388240.	
1067.00		392062.	
1066.00		393112.	
1065.00		390848.	
1064.00		390898.	
1063.00		390321.	
1062.00		396090.	
1061.00		398103.	
1060.00		394829.	
1059.00		396233.	
1058.00		397157.	
1057.00		398790.	
1056.00		395034.	
1055.00		398047.	
1054.00		403907.	
1053.00		401236.	
1052.00		400432.	
1051.00		400055.	
1050.00		404986.	
1049.00		406302.	
1048.00		407217.	
1047.00		427384.	
1046.00		475606.	
1045.00		529954.	
1044.00		510722.	
1043.00		440224.	
1042.00		401988.	
1041.00		395168.	
1040.00		397315.	
1039.00		394504.	
1038.00		393802.	
1037.00		391028.	
1036.00		394739.	
1035.00		390690.	
1034.00		392466.	
1033.00		391655.	
1032.00		390069.	
1031.00		391727.	
1030.00		389956.	
1029.00		389707.	
1028.00		392150.	
1027.00		394389.	
1026.00		395759.	
1025.00		404380.	
1024.00		440234.	
1023.00		530908.	
1022.00		671653.	
1021.00		631450.	
1020.00		461168.	
1019.00		392758.	
1018.00		374299.	
1017.00		372752.	
1016.00		372565.	
1015.00		371027.	
1014.00		370716.	
1013.00		372782.	
1012.00		369888.	
1011.00		372835.	
1010.00		373686.	
1009.00		372552.	
1008.00		378362.	
1007.00		374459.	
1006.00		375952.	
1005.00		378146.	
1004.00		380363.	
1003.00		381977.	
1002.00		383665.	
1001.00		385558.	
1000.00		387661.	
999.000		388150.	
998.000		391233.	
997.000		388789.	
996.000		389541.	
995.000		393430.	
994.000		391038.	
993.000		392542.	
992.000		395089.	
991.000		394685.	
990.000		394441.	
989.000		395857.	
988.000		398141.	
987.000		398797.	
986.000		401758.	
985.000		406179.	
984.000		406288.	
983.000		411298.	
982.000		415541.	
981.000		414561.	
980.000		415612.	
979.000		418935.	
978.000		426013.	
977.000		425965.	
976.000		427062.	
975.000		429485.	
974.000		432165.	
973.000		435134.	
972.000		435564.	
971.000		435158.	
970.000		430699.	
969.000		437177.	
968.000		438225.	
967.000		439212.	
966.000		440628.	
965.000		441356.	
964.000		435574.	
963.000		427162.	
962.000		423570.	
961.000		425881.	
960.000		429963.	
959.000		429833.	
958.000		429975.	
957.000		435785.	
956.000		459426.	
955.000		509866.	
954.000		650092.	
953.000		805709.	
952.000		735438.	
951.000		543751.	
950.000		455764.	
949.000		423517.	
948.000		414295.	
947.000		408554.	
946.000		397734.	
945.000		390327.	
944.000		380136.	
943.000		367466.	
942.000		356661.	
941.000		348688.	
940.000		346959.	
939.000		345691.	
938.000		347652.	
937.000		352988.	
936.000		378589.	
935.000		463939.	
934.000		854924.	
933.000		1.25430e+006	
932.000		938655.	
931.000		450847.	
930.000		302026.	
929.000		275879.	
928.000		260542.	
927.000		252203.	
926.000		248821.	
925.000		248279.	
924.000		245783.	
923.000		245147.	
922.000		244424.	
921.000		246262.	
920.000		246458.	
919.000		245189.	
918.000		244006.	
917.000		244549.	
916.000		247518.	
915.000		245808.	
914.000		244675.	
913.000		245388.	
912.000		243413.	
911.000		245162.	
910.000		245269.	
909.000		251179.	
908.000		247447.	
907.000		250025.	
906.000		247731.	
905.000		250093.	
904.000		247946.	
903.000		248751.	
902.000		248147.	
901.000		250900.	
900.000		250229.	
899.000		247599.	
898.000		250273.	
897.000		254101.	
896.000		253624.	
895.000		248943.	
894.000		249583.	
893.000		249989.	
892.000		254289.	
891.000		253228.	
890.000		252298.	
889.000		254509.	
888.000		250872.	
887.000		254753.	
886.000		253632.	
885.000		251498.	
884.000		255147.	
883.000		256564.	
882.000		253116.	
881.000		256023.	
880.000		255175.	
879.000		255444.	
878.000		254749.	
877.000		257596.	
876.000		254979.	
875.000		257831.	
874.000		260337.	
873.000		258171.	
872.000		259082.	
871.000		258334.	
870.000		258950.	
869.000		261783.	
868.000		261316.	
867.000		261741.	
866.000		259663.	
865.000		262526.	
864.000		263374.	
863.000		263263.	
862.000		263683.	
861.000		262861.	
860.000		262536.	
859.000		262632.	
858.000		263497.	
857.000		263789.	
856.000		265357.	
855.000		265325.	
854.000		266145.	
853.000		265311.	
852.000		270569.	
851.000		269046.	
850.000		267194.	
849.000		267081.	
848.000		267752.	
847.000		268670.	
846.000		268862.	
845.000		269348.	
844.000		271359.	
843.000		272627.	
842.000		273693.	
841.000		268740.	
840.000		275516.	
839.000		270202.	
838.000		270970.	
837.000		271924.	
836.000		269426.	
835.000		273427.	
834.000		273589.	
833.000		274944.	
832.000		275441.	
831.000		273123.	
830.000		276730.	
829.000		276674.	
828.000		277012.	
827.000		277594.	
826.000		276313.	
825.000		279728.	
824.000		278945.	
823.000		278947.	
822.000		279579.	
821.000		281269.	
820.000		281838.	
819.000		283097.	
818.000		283147.	
817.000		281448.	
816.000		285099.	
815.000		284443.	
814.000		283228.	
813.000		285745.	
812.000		286887.	
811.000		288103.	
810.000		284832.	
809.000		287421.	
808.000		287125.	
807.000		288290.	
806.000		288989.	
805.000		289612.	
804.000		286958.	
803.000		289114.	
802.000		290777.	
801.000		291058.	
800.000		293327.	
799.000		293455.	
798.000		292741.	
797.000		293652.	
796.000		295696.	
795.000		297432.	
794.000		297538.	
793.000		299849.	
792.000		299903.	
791.000		297401.	
790.000		297855.	
789.000		299595.	
788.000		301883.	
787.000		302786.	
786.000		301003.	
785.000		303998.	
784.000		305296.	
783.000		304484.	
782.000		306725.	
781.000		307838.	
780.000		309579.	
779.000		310051.	
778.000		311648.	
777.000		311380.	
776.000		312159.	
775.000		314855.	
774.000		315396.	
773.000		316797.	
772.000		317331.	
771.000		316133.	
770.000		319325.	
769.000		320864.	
768.000		321612.	
767.000		318819.	
766.000		317106.	
765.000		317312.	
764.000		316544.	
763.000		314572.	
762.000		318138.	
761.000		319651.	
760.000		321672.	
759.000		321411.	
758.000		325789.	
757.000		327837.	
756.000		325898.	
755.000		328810.	
754.000		324819.	
753.000		323313.	
752.000		323153.	
751.000		321724.	
750.000		323898.	
749.000		318685.	
748.000		322101.	
747.000		323273.	
746.000		321992.	
745.000		323590.	
744.000		327310.	
743.000		327192.	
742.000		325379.	
741.000		326092.	
740.000		333031.	
739.000		334214.	
738.000		336942.	
737.000		334921.	
736.000		339261.	
735.000		341782.	
734.000		341003.	
733.000		343601.	
732.000		344175.	
731.000		349591.	
730.000		347847.	
729.000		349423.	
728.000		354582.	
727.000		356868.	
726.000		353479.	
725.000		357467.	
724.000		359528.	
723.000		362822.	
722.000		368737.	
721.000		369897.	
720.000		373369.	
719.000		376002.	
718.000		373780.	
717.000		369474.	
716.000		364679.	
715.000		363716.	
714.000		364095.	
713.000		367727.	
712.000		364010.	
711.000		356949.	
710.000		347162.	
709.000		332745.	
708.000		323247.	
707.000		315885.	
706.000		313306.	
705.000		308306.	
704.000		310002.	
703.000		309418.	
702.000		307196.	
701.000		306583.	
700.000		310545.	
699.000		306054.	
698.000		301375.	
697.000		300908.	
696.000		302247.	
695.000		302503.	
694.000		302270.	
693.000		300388.	
692.000		300242.	
691.000		302243.	
690.000		300667.	
689.000		301926.	
688.000		302084.	
687.000		296554.	
686.000		292298.	
685.000		293103.	
684.000		292174.	
683.000		291491.	
682.000		290745.	
681.000		291981.	
680.000		296459.	
679.000		297355.	
678.000		299307.	
677.000		302047.	
676.000		302853.	
675.000		303601.	
674.000		302942.	
673.000		308279.	
672.000		306549.	
671.000		308211.	
670.000		311828.	
669.000		314194.	
668.000		318281.	
667.000		317231.	
666.000		318721.	
665.000		322632.	
664.000		323728.	
663.000		326067.	
662.000		326570.	
661.000		330222.	
660.000		333107.	
659.000		341169.	
658.000		342567.	
657.000		346205.	
656.000		350938.	
655.000		352000.	
654.000		348396.	
653.000		350835.	
652.000		351761.	
651.000		359605.	
650.000		365982.	
649.000		380799.	
648.000		393979.	
647.000		382722.	
646.000		357711.	
645.000		334192.	
644.000		325717.	
643.000		320023.	
642.000		323459.	
641.000		331366.	
640.000		336573.	
639.000		324832.	
638.000		309174.	
637.000		290387.	
636.000		278465.	
635.000		272880.	
634.000		263258.	
633.000		257374.	
632.000		255143.	
631.000		255238.	
630.000		254314.	
629.000		255520.	
628.000		258158.	
627.000		252848.	
626.000		243227.	
625.000		239382.	
624.000		236665.	
623.000		231880.	
622.000		228361.	
621.000		229063.	
620.000		226202.	
619.000		223956.	
618.000		225542.	
617.000		219513.	
616.000		220442.	
615.000		220547.	
614.000		219627.	
613.000		222177.	
612.000		218888.	
611.000		221976.	
610.000		222911.	
609.000		223002.	
608.000		226454.	
607.000		224017.	
606.000		225326.	
605.000		227496.	
604.000		228554.	
603.000		232924.	
602.000		232163.	
601.000		234793.	
600.000		235631.	
599.000		238847.	
598.000		241299.	
597.000		242181.	
596.000		243602.	
595.000		247118.	
594.000		251066.	
593.000		251529.	
592.000		254736.	
591.000		256716.	
590.000		258733.	
589.000		260261.	
588.000		265000.	
587.000		267212.	
586.000		270821.	
585.000		271927.	
584.000		271691.	
583.000		278061.	
582.000		283760.	
581.000		287267.	
580.000		286090.	
579.000		286327.	
578.000		285075.	
577.000		290360.	
576.000		293564.	
575.000		303770.	
574.000		318332.	
573.000		337600.	
572.000		346724.	
571.000		352045.	
570.000		374261.	
569.000		431080.	
568.000		469851.	
567.000		395772.	
566.000		317278.	
565.000		265228.	
564.000		225065.	
563.000		193495.	
562.000		186845.	
561.000		182854.	
560.000		178714.	
559.000		177159.	
558.000		173842.	
557.000		168936.	
556.000		161854.	
555.000		159704.	
554.000		157762.	
553.000		164830.	
552.000		166802.	
551.000		159163.	
550.000		155585.	
549.000		166070.	
548.000		166139.	
547.000		151753.	
546.000		134688.	
545.000		126078.	
544.000		116196.	
543.000		112032.	
542.000		111041.	
541.000		109449.	
540.000		106702.	
539.000		107629.	
538.000		108593.	
537.000		110885.	
536.000		108612.	
535.000		110000.	
534.000		116893.	
533.000		125595.	
532.000		135466.	
531.000		131750.	
530.000		121299.	
529.000		109949.	
528.000		102902.	
527.000		102669.	
526.000		103514.	
525.000		105207.	
524.000		104903.	
523.000		104167.	
522.000		105556.	
521.000		105898.	
520.000		106578.	
519.000		106317.	
518.000		107875.	
517.000		106392.	
516.000		106144.	
515.000		108843.	
514.000		108314.	
513.000		107064.	
512.000		107310.	
511.000		108423.	
510.000		107728.	
509.000		109295.	
508.000		111111.	
507.000		110850.	
506.000		111320.	
505.000		111881.	
504.000		113956.	
503.000		116036.	
502.000		118694.	
501.000		125353.	
500.000		134996.	
499.000		145517.	
498.000		151387.	
497.000		147393.	
496.000		148301.	
495.000		165298.	
494.000		168065.	
493.000		140888.	
492.000		114415.	
491.000		108307.	
490.000		93956.7	
489.000		81273.1	
488.000		75884.4	
487.000		74357.9	
486.000		72464.6	
485.000		74306.5	
484.000		74838.9	
483.000		73051.9	
482.000		74307.2	
481.000		74084.8	
480.000		74241.4	
479.000		75616.0	
478.000		77693.2	
477.000		80527.8	
476.000		82061.2	
475.000		83075.6	
474.000		82223.5	
473.000		81327.7	
472.000		89985.8	
471.000		91756.7	
470.000		81245.6	
469.000		70092.5	
468.000		66317.1	
467.000		61656.8	
466.000		59987.8	
465.000		58102.3	
464.000		57502.0	
463.000		57438.5	
462.000		56469.4	
461.000		57321.1	
460.000		58713.7	
459.000		57045.5	
458.000		56681.7	
457.000		58029.4	
456.000		56965.3	
455.000		57374.6	
454.000		57244.8	
453.000		56832.8	
452.000		57453.2	
451.000		56515.5	
450.000		56884.7	
449.000		56654.0	
448.000		55627.1	
447.000		55937.8	
446.000		55319.4	
445.000		56241.3	
444.000		58127.4	
443.000		56897.6	
442.000		57292.5	
441.000		57861.9	
440.000		58760.5	
439.000		60201.7	
438.000		56906.2	
437.000		57196.5	
436.000		59150.5	
435.000		57130.7	
434.000		57107.9	
433.000		57083.2	
432.000		57434.2	
431.000		55905.5	
430.000		56754.4	
429.000		56321.3	
428.000		58206.7	
427.000		58293.6	
426.000		56347.5	
425.000		56787.0	
424.000		57676.3	
423.000		57004.6	
422.000		58022.4	
421.000		58005.2	
420.000		57423.6	
419.000		58087.9	
418.000		57627.8	
417.000		57850.8	
416.000		58762.2	
415.000		58129.4	
414.000		58574.2	
413.000		59518.9	
412.000		58860.4	
411.000		60581.3	
410.000		60361.2	
409.000		59619.5	
408.000		59381.4	
407.000		60326.7	
406.000		58674.0	
405.000		59034.7	
404.000		61362.4	
403.000		59527.8	
402.000		60231.1	
401.000		61625.4	
400.000		62364.6	
399.000		62880.7	
398.000		60481.9	
397.000		60070.3	
396.000		58172.4	
395.000		58586.6	
394.000		58900.9	
393.000		59751.6	
392.000		59341.2	
391.000		58690.2	
390.000		58179.1	
389.000		59612.4	
388.000		58812.8	
387.000		59419.7	
386.000		58891.6	
385.000		59311.7	
384.000		60441.2	
383.000		60468.3	
382.000		60015.3	
381.000		60536.0	
380.000		61582.0	
379.000		63174.8	
378.000		64128.8	
377.000		63887.0	
376.000		60920.5	
375.000		62330.2	
374.000		60696.8	
373.000		61327.3	
372.000		62144.9	
371.000		61591.8	
370.000		59710.3	
369.000		61745.4	
368.000		62707.4	
367.000		62014.1	
366.000		61432.6	
365.000		61053.2	
364.000		62649.7	
363.000		62720.3	
362.000		61947.4	
361.000		62274.0	
360.000		62453.2	
359.000		63555.7	
358.000		63499.7	
357.000		63808.8	
356.000		61893.4	
355.000		62489.7	
354.000		62095.1	
353.000		64639.7	
352.000		64593.2	
351.000		66297.8	
350.000		66463.9	
349.000		66903.6	
348.000		71185.3	
347.000		70093.9	
346.000		66158.8	
345.000		64724.5	
344.000		63329.9	
343.000		63896.3	
342.000		63855.1	
341.000		65214.0	
340.000		63491.4	
339.000		63143.6	
338.000		64593.9	
337.000		63806.1	
336.000		64014.3	
335.000		64620.5	
334.000		64560.0	
333.000		65298.9	
332.000		64548.3	
331.000		64810.1	
330.000		64866.0	
329.000		64540.9	
328.000		63779.5	
327.000		65320.4	
326.000		66693.5	
325.000		65558.4	
324.000		66647.2	
323.000		67642.1	
322.000		68133.1	
321.000		67546.5	
320.000		69468.7	
319.000		68763.1	
318.000		68203.8	
317.000		68140.8	
316.000		68305.1	
