?
Axis	Energy	Elements=	1001

C:\Users\AG Wittstock\Documents\Iza\06_27.01.2017\PET_03\Polyanalyse.DATA\O1s Scan.VGD





Binding Energy (E)				O1s Scan A	O1s Scan B	Backgnd.	Envelope	Residuals	
eV		Counts / s  (Residuals × 2)		Counts / s  (Residuals × 2)	Counts / s  (Residuals × 2)	Counts / s  (Residuals × 2)	Counts / s  (Residuals × 2)	Counts / s  (Residuals × 2)
545.000		4587.26		4480.69	4480.69	4480.69	4480.69	106.570	
544.980		4542.10		4480.22	4480.22	4480.22	4480.22	61.8837	
544.960		4473.22		4478.87	4478.87	4478.87	4478.87	-5.65146	
544.940		4493.51		4476.80	4476.80	4476.80	4476.80	16.7139	
544.920		4476.36		4473.83	4473.83	4473.83	4473.83	2.53006	
544.900		4528.67		4471.02	4471.02	4471.02	4471.02	57.6522	
544.880		4580.40		4468.04	4468.04	4468.04	4468.04	112.362	
544.860		4335.45		4464.48	4464.48	4464.48	4464.48	-129.036	
544.840		4297.72		4460.52	4460.52	4460.52	4460.52	-162.803	
544.820		4435.20		4455.94	4455.94	4455.94	4455.94	-20.7379	
544.800		4549.53		4450.83	4450.83	4450.83	4450.83	98.7070	
544.780		4506.95		4445.40	4445.40	4445.40	4445.40	61.5422	
544.760		4442.63		4439.95	4439.95	4439.95	4439.95	2.68711	
544.740		4623.85		4434.55	4434.55	4434.55	4434.55	189.299	
544.720		4604.41		4429.25	4429.25	4429.25	4429.25	175.166	
544.700		4647.57		4424.28	4424.28	4424.28	4424.28	223.290	
544.680		4420.91		4419.35	4419.35	4419.35	4419.35	1.55694	
544.660		4485.79		4414.14	4414.14	4414.14	4414.14	71.6591	
544.640		4587.26		4408.84	4408.84	4408.84	4408.84	178.427	
544.620		4541.82		4403.71	4403.71	4403.71	4403.71	138.110	
544.600		4598.12		4398.75	4398.75	4398.75	4398.75	199.378	
544.580		4572.11		4393.25	4393.25	4393.25	4393.25	178.861	
544.560		4501.80		4386.95	4386.95	4386.95	4386.95	114.854	
544.540		4407.76		4380.75	4380.75	4380.75	4380.75	27.0085	
544.520		4368.03		4374.58	4374.58	4374.58	4374.58	-6.54617	
544.500		4435.20		4368.09	4368.09	4368.09	4368.09	67.1132	
544.480		4310.30		4361.47	4361.47	4361.47	4361.47	-51.1733	
544.460		4348.31		4355.08	4355.08	4355.08	4355.08	-6.76663	
544.440		4476.08		4348.75	4348.75	4348.75	4348.75	127.331	
544.420		4384.61		4342.97	4342.97	4342.97	4342.97	41.6426	
544.400		4353.74		4337.20	4337.20	4337.20	4337.20	16.5391	
544.380		4407.76		4331.38	4331.38	4331.38	4331.38	76.3826	
544.360		4398.04		4325.91	4325.91	4325.91	4325.91	72.1384	
544.340		4444.06		4320.76	4320.76	4320.76	4320.76	123.307	
544.320		4261.13		4316.40	4316.40	4316.40	4316.40	-55.2662	
544.300		4410.34		4312.23	4312.23	4312.23	4312.23	98.1015	
544.280		4477.51		4307.90	4307.90	4307.90	4307.90	169.604	
544.260		4347.74		4303.51	4303.51	4303.51	4303.51	44.2326	
544.240		4408.33		4299.32	4299.32	4299.32	4299.32	109.012	
544.220		4449.21		4295.23	4295.23	4295.23	4295.23	153.980	
544.200		4330.30		4291.27	4291.27	4291.27	4291.27	39.0323	
544.180		4292.86		4287.38	4287.38	4287.38	4287.38	5.47885	
544.160		4380.32		4283.57	4283.57	4283.57	4283.57	96.7527	
544.140		4347.74		4279.82	4279.82	4279.82	4279.82	67.9161	
544.120		4316.30		4276.09	4276.09	4276.09	4276.09	40.2101	
544.100		4223.69		4272.39	4272.39	4272.39	4272.39	-48.6983	
544.080		4409.19		4268.85	4268.85	4268.85	4268.85	140.346	
544.060		4460.93		4265.40	4265.40	4265.40	4265.40	195.524	
544.040		4328.59		4261.98	4261.98	4261.98	4261.98	66.6059	
544.020		4197.96		4258.81	4258.81	4258.81	4258.81	-60.8440	
544.000		4308.58		4256.22	4256.22	4256.22	4256.22	52.3631	
543.980		4169.10		4253.75	4253.75	4253.75	4253.75	-84.6567	
543.960		4232.55		4251.41	4251.41	4251.41	4251.41	-18.8550	
543.940		4356.89		4249.14	4249.14	4249.14	4249.14	107.748	
543.920		4272.28		4246.90	4246.90	4246.90	4246.90	25.3810	
543.900		4258.56		4244.65	4244.65	4244.65	4244.65	13.9112	
543.880		4305.15		4242.49	4242.49	4242.49	4242.49	62.6636	
543.860		4254.84		4240.58	4240.58	4240.58	4240.58	14.2651	
543.840		4323.44		4238.92	4238.92	4238.92	4238.92	84.5242	
543.820		4166.24		4236.76	4236.76	4236.76	4236.76	-70.5221	
543.800		4241.98		4234.62	4234.62	4234.62	4234.62	7.36163	
543.780		4201.97		4232.74	4232.74	4232.74	4232.74	-30.7734	
543.760		4231.98		4231.05	4231.05	4231.05	4231.05	0.929577	
543.740		4297.43		4229.23	4229.23	4229.23	4229.23	68.1994	
543.720		4351.74		4227.41	4227.41	4227.41	4227.41	124.330	
543.700		4250.27		4225.51	4225.51	4225.51	4225.51	24.7639	
543.680		4226.26		4223.59	4223.59	4223.59	4223.59	2.66916	
543.660		4280.00		4221.81	4221.81	4221.81	4221.81	58.1883	
543.640		4185.96		4219.96	4219.96	4219.96	4219.96	-33.9984	
543.620		4147.94		4218.03	4218.03	4218.03	4218.03	-70.0854	
543.600		4352.03		4215.97	4215.97	4215.97	4215.97	136.052	
543.580		4329.73		4213.54	4213.54	4213.54	4213.54	116.190	
543.560		4290.57		4211.39	4211.39	4211.39	4211.39	79.1825	
543.540		4174.81		4208.78	4208.78	4208.78	4208.78	-33.9646	
543.520		4187.96		4205.77	4205.77	4205.77	4205.77	-17.8121	
543.500		4240.55		4202.62	4202.62	4202.62	4202.62	37.9293	
543.480		4132.22		4199.52	4199.52	4199.52	4199.52	-67.3006	
543.460		4164.81		4196.28	4196.28	4196.28	4196.28	-31.4693	
543.440		4215.69		4193.10	4193.10	4193.10	4193.10	22.5841	
543.420		4231.41		4189.41	4189.41	4189.41	4189.41	41.9996	
543.400		4220.83		4184.80	4184.80	4184.80	4184.80	36.0323	
543.380		4287.72		4180.02	4180.02	4180.02	4180.02	107.693	
543.360		4300.29		4174.92	4174.92	4174.92	4174.92	125.376	
543.340		4144.80		4169.55	4169.55	4169.55	4169.55	-24.7536	
543.320		4237.41		4164.31	4164.31	4164.31	4164.31	73.0990	
543.300		4281.14		4159.56	4159.56	4159.56	4159.56	121.581	
543.280		4152.80		4154.83	4154.83	4154.83	4154.83	-2.02144	
543.260		4115.93		4149.49	4149.49	4149.49	4149.49	-33.5541	
543.240		4247.13		4143.67	4143.67	4143.67	4143.67	103.455	
543.220		4226.55		4137.64	4137.64	4137.64	4137.64	88.9113	
543.200		4320.87		4131.44	4131.44	4131.44	4131.44	189.427	
543.180		4418.05		4125.52	4125.52	4125.52	4125.52	292.538	
543.160		4210.26		4119.64	4119.64	4119.64	4119.64	90.6193	
543.140		4167.38		4113.64	4113.64	4113.64	4113.64	53.7433	
543.120		4098.78		4107.51	4107.51	4107.51	4107.51	-8.72393	
543.100		4176.53		4101.70	4101.70	4101.70	4101.70	74.8239	
543.080		4032.18		4096.26	4096.26	4096.26	4096.26	-64.0746	
543.060		4159.95		4090.55	4090.55	4090.55	4090.55	69.4014	
543.040		4249.41		4084.81	4084.81	4084.81	4084.81	164.600	
543.020		4209.97		4079.00	4079.00	4079.00	4079.00	130.973	
543.000		4171.38		4073.05	4073.05	4073.05	4073.05	98.3322	
542.980		4038.76		4067.01	4067.01	4067.01	4067.01	-28.2467	
542.960		3931.00		4061.64	4061.64	4061.64	4061.64	-130.635	
542.940		4057.34		4056.83	4056.83	4056.83	4056.83	0.503370	
542.920		4130.80		4052.27	4052.27	4052.27	4052.27	78.5292	
542.900		4123.65		4048.02	4048.02	4048.02	4048.02	75.6247	
542.880		4036.47		4043.99	4043.99	4043.99	4043.99	-7.51619	
542.860		4046.19		4040.61	4040.61	4040.61	4040.61	5.57712	
542.840		4103.36		4037.54	4037.54	4037.54	4037.54	65.8121	
542.820		4112.22		4034.71	4034.71	4034.71	4034.71	77.5092	
542.800		4176.53		4032.10	4032.10	4032.10	4032.10	144.428	
542.780		4062.20		4029.51	4029.51	4029.51	4029.51	32.6887	
542.760		4014.75		4027.13	4027.13	4027.13	4027.13	-12.3856	
542.740		3888.98		4024.74	4024.74	4024.74	4024.74	-135.752	
542.720		3917.28		4022.80	4022.80	4022.80	4022.80	-105.514	
542.700		4131.65		4020.93	4020.93	4020.93	4020.93	110.718	
542.680		4203.11		4018.68	4018.68	4018.68	4018.68	184.432	
542.660		4041.90		4016.52	4016.52	4016.52	4016.52	25.3874	
542.640		3852.11		4014.14	4014.14	4014.14	4014.14	-162.023	
542.620		3912.71		4011.65	4011.65	4011.65	4011.65	-98.9467	
542.600		4020.18		4009.08	4009.08	4009.08	4009.08	11.0992	
542.580		3881.27		4006.13	4006.13	4006.13	4006.13	-124.865	
542.560		4083.92		4003.28	4003.28	4003.28	4003.28	80.6395	
542.540		4106.50		4000.66	4000.66	4000.66	4000.66	105.835	
542.520		4151.66		3998.79	3998.79	3998.79	3998.79	152.873	
542.500		3953.30		3997.10	3997.10	3997.10	3997.10	-43.8070	
542.480		3953.30		3994.94	3994.94	3994.94	3994.94	-41.6471	
542.460		4004.17		3992.13	3992.13	3992.13	3992.13	12.0436	
542.440		3962.44		3988.89	3988.89	3988.89	3988.89	-26.4436	
542.420		4139.94		3985.93	3985.93	3985.93	3985.93	154.013	
542.400		4091.06		3983.27	3983.27	3983.27	3983.27	107.795	
542.380		4000.17		3980.67	3980.67	3980.67	3980.67	19.4989	
542.360		4101.07		3978.00	3978.00	3978.00	3978.00	123.069	
542.340		3997.03		3974.94	3974.94	3974.94	3974.94	22.0863	
542.320		3961.58		3971.96	3971.96	3971.96	3971.96	-10.3796	
542.300		3864.69		3968.50	3968.50	3968.50	3968.50	-103.814	
542.280		3943.86		3964.97	3964.97	3964.97	3964.97	-21.1081	
542.260		4119.65		3961.81	3961.81	3961.81	3961.81	157.835	
542.240		4045.05		3959.19	3959.19	3959.19	3959.19	85.8613	
542.220		3989.02		3956.44	3956.44	3956.44	3956.44	32.5824	
542.200		3959.87		3953.48	3953.48	3953.48	3953.48	6.38548	
542.180		4033.04		3950.36	3950.36	3950.36	3950.36	82.6821	
542.160		3955.30		3947.33	3947.33	3947.33	3947.33	7.96195	
542.140		3812.38		3944.39	3944.39	3944.39	3944.39	-132.011	
542.120		3975.02		3941.26	3941.26	3941.26	3941.26	33.7548	
542.100		3921.57		3938.12	3938.12	3938.12	3938.12	-16.5465	
542.080		3971.87		3935.52	3935.52	3935.52	3935.52	36.3580	
542.060		4029.90		3933.16	3933.16	3933.16	3933.16	96.7334	
542.040		3906.13		3930.80	3930.80	3930.80	3930.80	-24.6653	
542.020		3905.85		3927.66	3927.66	3927.66	3927.66	-21.8148	
542.000		3931.00		3924.17	3924.17	3924.17	3924.17	6.83474	
541.980		3961.87		3921.38	3921.38	3921.38	3921.38	40.4871	
541.960		3994.17		3918.88	3918.88	3918.88	3918.88	75.2848	
541.940		3862.40		3916.64	3916.64	3916.64	3916.64	-54.2410	
541.920		4047.33		3914.54	3914.54	3914.54	3914.54	132.791	
541.900		4090.49		3912.86	3912.86	3912.86	3912.86	177.638	
541.880		3941.29		3911.70	3911.70	3911.70	3911.70	29.5938	
541.860		3854.68		3910.18	3910.18	3910.18	3910.18	-55.4922	
541.840		3860.97		3908.44	3908.44	3908.44	3908.44	-47.4695	
541.820		3915.85		3906.37	3906.37	3906.37	3906.37	9.47730	
541.800		4069.63		3905.02	3905.02	3905.02	3905.02	164.613	
541.780		4000.74		3903.78	3903.78	3903.78	3903.78	96.9637	
541.760		3816.67		3902.38	3902.38	3902.38	3902.38	-85.7073	
541.740		3896.99		3900.62	3900.62	3900.62	3900.62	-3.63048	
541.720		3854.97		3898.99	3898.99	3898.99	3898.99	-44.0181	
541.700		3869.55		3897.65	3897.65	3897.65	3897.65	-28.1063	
541.680		3855.54		3896.77	3896.77	3896.77	3896.77	-41.2278	
541.660		3747.50		3896.06	3896.06	3896.06	3896.06	-148.565	
541.640		3907.56		3895.89	3895.89	3895.89	3895.89	11.6732	
541.620		4015.89		3895.89	3895.89	3895.89	3895.89	120.003	
541.600		3998.46		3895.88	3895.88	3895.88	3895.88	102.581	
541.580		3699.77		3895.81	3895.81	3895.81	3895.81	-196.049	
541.560		3963.30		3895.73	3895.73	3895.73	3895.73	67.5659	
541.540		3937.86		3895.62	3895.62	3895.62	3895.62	42.2419	
541.520		3997.60		3895.59	3895.59	3895.59	3895.59	102.011	
541.500		3856.69		3895.56	3895.56	3895.56	3895.56	-38.8736	
541.480		3835.82		3895.55	3895.55	3895.55	3895.55	-59.7267	
541.460		3822.10		3895.54	3895.54	3895.54	3895.54	-73.4386	
541.440		3788.09		3895.49	3895.49	3895.49	3895.49	-107.406	
541.420		3859.83		3895.47	3895.47	3895.47	3895.47	-35.6424	
541.400		4029.90		3895.39	3895.39	3895.39	3895.39	134.513	
541.380		3974.45		3895.21	3895.21	3895.21	3895.21	79.2387	
541.360		3965.30		3895.00	3895.00	3895.00	3895.00	70.3046	
541.340		3906.71		3894.82	3894.82	3894.82	3894.82	11.8856	
541.320		3995.03		3894.75	3894.75	3894.75	3894.75	100.279	
541.300		3866.69		3894.56	3894.56	3894.56	3894.56	-27.8739	
541.280		3996.74		3894.34	3894.34	3894.34	3894.34	102.402	
541.260		3776.08		3894.11	3894.11	3894.11	3894.11	-118.025	
541.240		3867.26		3893.88	3893.88	3893.88	3893.88	-26.6238	
541.220		3927.29		3893.64	3893.64	3893.64	3893.64	33.6465	
541.200		3820.39		3893.31	3893.31	3893.31	3893.31	-72.9270	
541.180		3981.88		3892.92	3892.92	3892.92	3892.92	88.9612	
541.160		3919.57		3892.41	3892.41	3892.41	3892.41	27.1588	
541.140		3971.59		3891.87	3891.87	3891.87	3891.87	79.7222	
541.120		3939.86		3891.33	3891.33	3891.33	3891.33	48.5332	
541.100		3793.80		3890.86	3890.86	3890.86	3890.86	-97.0558	
541.080		3913.28		3890.49	3890.49	3890.49	3890.49	22.7859	
541.060		4036.19		3890.15	3890.15	3890.15	3890.15	146.040	
541.040		3949.58		3889.85	3889.85	3889.85	3889.85	59.7286	
541.020		3970.16		3889.50	3889.50	3889.50	3889.50	80.6575	
541.000		3898.70		3889.21	3889.21	3889.21	3889.21	9.49428	
540.980		3985.31		3888.82	3888.82	3888.82	3888.82	96.4858	
540.960		3947.29		3888.43	3888.43	3888.43	3888.43	58.8672	
540.940		3998.17		3888.07	3888.07	3888.07	3888.07	110.105	
540.920		3914.42		3887.66	3887.66	3887.66	3887.66	26.7631	
540.900		4008.46		3887.25	3887.25	3887.25	3887.25	121.207	
540.880		3829.25		3886.78	3886.78	3886.78	3886.78	-57.5370	
540.860		3752.36		3886.37	3886.37	3886.37	3886.37	-134.015	
540.840		3864.97		3886.10	3886.10	3886.10	3886.10	-21.1282	
540.820		3882.70		3885.85	3885.85	3885.85	3885.85	-3.15831	
540.800		3966.16		3885.58	3885.58	3885.58	3885.58	80.5765	
540.780		3881.27		3885.35	3885.35	3885.35	3885.35	-4.08471	
540.760		3946.72		3885.15	3885.15	3885.15	3885.15	61.5755	
540.740		3879.84		3884.92	3884.92	3884.92	3884.92	-5.08316	
540.720		3848.40		3884.70	3884.70	3884.70	3884.70	-36.3059	
540.700		3899.56		3884.54	3884.54	3884.54	3884.54	15.0215	
540.680		3974.73		3884.41	3884.41	3884.41	3884.41	90.3228	
540.660		4033.04		3884.38	3884.38	3884.38	3884.38	148.658	
540.640		3843.54		3884.37	3884.37	3884.37	3884.37	-40.8278	
540.620		3661.18		3884.24	3884.24	3884.24	3884.24	-223.065	
540.600		3744.93		3884.06	3884.06	3884.06	3884.06	-139.133	
540.580		3954.72		3883.79	3883.79	3883.79	3883.79	70.9360	
540.560		3946.72		3883.51	3883.51	3883.51	3883.51	63.2164	
540.540		3896.99		3883.21	3883.21	3883.21	3883.21	13.7788	
540.520		4003.89		3882.92	3882.92	3882.92	3882.92	120.964	
540.500		3880.41		3882.64	3882.64	3882.64	3882.64	-2.22638	
540.480		3874.98		3882.37	3882.37	3882.37	3882.37	-7.39630	
540.460		3874.41		3882.10	3882.10	3882.10	3882.10	-7.68852	
540.440		3796.38		3881.77	3881.77	3881.77	3881.77	-85.3953	
540.420		3900.99		3881.41	3881.41	3881.41	3881.41	19.5823	
540.400		3971.02		3881.02	3881.02	3881.02	3881.02	89.9936	
540.380		3980.16		3880.63	3880.63	3880.63	3880.63	99.5323	
540.360		3954.72		3880.17	3880.17	3880.17	3880.17	74.5581	
540.340		3884.41		3879.63	3879.63	3879.63	3879.63	4.78557	
540.320		3900.70		3879.03	3879.03	3879.03	3879.03	21.6684	
540.300		3921.28		3878.45	3878.45	3878.45	3878.45	42.8323	
540.280		3874.69		3877.86	3877.86	3877.86	3877.86	-3.16755	
540.260		3862.97		3877.27	3877.27	3877.27	3877.27	-14.2921	
540.240		3912.42		3876.67	3876.67	3876.67	3876.67	35.7506	
540.220		3947.29		3876.01	3876.01	3876.01	3876.01	71.2822	
540.200		3984.17		3875.37	3875.37	3875.37	3875.37	108.797	
540.180		4006.17		3874.70	3874.70	3874.70	3874.70	131.477	
540.160		4038.47		3873.96	3873.96	3873.96	3873.96	164.508	
540.140		4008.75		3873.18	3873.18	3873.18	3873.18	135.564	
540.120		3836.39		3872.38	3872.38	3872.38	3872.38	-35.9867	
540.100		3848.97		3871.59	3871.59	3871.59	3871.59	-22.6235	
540.080		3917.00		3870.82	3870.82	3870.82	3870.82	46.1771	
540.060		3940.43		3870.04	3870.04	3870.04	3870.04	70.3950	
540.040		3886.13		3869.32	3869.32	3869.32	3869.32	16.8102	
540.020		3981.88		3868.61	3868.61	3868.61	3868.61	113.269	
540.000		4025.90		3867.83	3867.83	3867.83	3867.83	158.066	
539.980		3807.52		3866.91	3866.91	3866.91	3866.91	-59.3861	
539.960		3922.14		3865.89	3865.89	3865.89	3865.89	56.2515	
539.940		3927.57		3864.86	3864.86	3864.86	3864.86	62.7114	
539.920		4002.74		3863.87	3863.87	3863.87	3863.87	138.869	
539.900		4001.60		3862.91	3862.91	3862.91	3862.91	138.686	
539.880		3909.28		3862.00	3862.00	3862.00	3862.00	47.2763	
539.860		3894.99		3861.08	3861.08	3861.08	3861.08	33.9048	
539.840		3875.55		3860.10	3860.10	3860.10	3860.10	15.4508	
539.820		3730.06		3859.07	3859.07	3859.07	3859.07	-129.004	
539.800		3854.40		3858.02	3858.02	3858.02	3858.02	-3.62187	
539.780		4037.04		3856.93	3856.93	3856.93	3856.93	180.109	
539.760		4193.68		3855.76	3855.76	3855.76	3855.76	337.914	
539.740		4134.80		3854.59	3854.59	3854.59	3854.59	280.202	
539.720		3938.72		3853.50	3853.51	3853.50	3853.51	85.2107	
539.700		3841.25		3852.35	3852.36	3852.35	3852.36	-11.1053	
539.680		3914.42		3851.21	3851.22	3851.21	3851.22	63.2070	
539.660		3888.70		3850.01	3850.01	3850.01	3850.01	38.6854	
539.640		3998.17		3848.77	3848.77	3848.77	3848.77	149.397	
539.620		3965.30		3847.47	3847.48	3847.47	3847.48	117.821	
539.600		3944.15		3846.18	3846.19	3846.18	3846.19	97.9621	
539.580		3923.28		3844.87	3844.88	3844.87	3844.88	78.4064	
539.560		4008.46		3843.46	3843.47	3843.46	3843.47	164.987	
539.540		4067.91		3841.98	3841.99	3841.98	3841.99	225.927	
539.520		3943.86		3840.45	3840.47	3840.45	3840.47	103.398	
539.500		3785.23		3838.98	3838.99	3838.98	3838.99	-53.7628	
539.480		3937.86		3837.58	3837.60	3837.58	3837.60	100.262	
539.460		3859.83		3836.23	3836.25	3836.23	3836.25	23.5785	
539.440		4053.05		3834.81	3834.84	3834.81	3834.84	218.215	
539.420		4059.62		3833.34	3833.37	3833.34	3833.37	226.258	
539.400		4105.64		3831.86	3831.89	3831.86	3831.89	273.757	
539.380		3868.98		3830.31	3830.34	3830.31	3830.34	38.6330	
539.360		3902.42		3828.71	3828.74	3828.71	3828.74	73.6741	
539.340		4076.20		3827.11	3827.15	3827.11	3827.15	249.054	
539.320		3902.70		3825.47	3825.52	3825.47	3825.52	77.1889	
539.300		3898.42		3823.74	3823.79	3823.74	3823.79	74.6244	
539.280		3880.41		3821.99	3822.05	3821.99	3822.05	58.3600	
539.260		3946.44		3820.27	3820.34	3820.27	3820.34	126.091	
539.240		3984.45		3818.52	3818.61	3818.52	3818.61	165.845	
539.220		4074.20		3816.73	3816.82	3816.73	3816.82	257.381	
539.200		3939.00		3814.91	3815.02	3814.91	3815.02	123.985	
539.180		3901.85		3813.06	3813.17	3813.06	3813.17	88.6724	
539.160		4006.75		3811.22	3811.35	3811.22	3811.35	195.394	
539.140		4101.64		3809.39	3809.54	3809.39	3809.54	292.097	
539.120		3915.28		3807.56	3807.74	3807.56	3807.74	107.545	
539.100		3998.46		3805.71	3805.90	3805.71	3805.90	192.552	
539.080		4108.50		3803.85	3804.07	3803.85	3804.07	304.433	
539.060		4015.32		3802.07	3802.32	3802.07	3802.32	213.005	
539.040		3927.86		3800.23	3800.51	3800.23	3800.51	127.348	
539.020		3989.02		3798.28	3798.59	3798.28	3798.59	190.432	
539.000		3862.40		3796.31	3796.65	3796.31	3796.65	65.7502	
538.980		3930.43		3794.32	3794.71	3794.32	3794.71	135.722	
538.960		3930.72		3792.29	3792.72	3792.29	3792.72	137.996	
538.940		3952.44		3790.27	3790.76	3790.27	3790.76	161.681	
538.920		3979.88		3788.24	3788.78	3788.24	3788.78	191.101	
538.900		4064.20		3786.14	3786.74	3786.14	3786.74	277.456	
538.880		3884.41		3784.06	3784.72	3784.06	3784.72	99.6864	
538.860		3876.41		3781.97	3782.71	3781.97	3782.71	93.6988	
538.840		3824.10		3779.80	3780.63	3779.80	3780.63	43.4759	
538.820		4000.17		3777.64	3778.55	3777.64	3778.55	221.619	
538.800		4137.94		3775.45	3776.46	3775.45	3776.46	361.477	
538.780		3900.99		3773.25	3774.37	3773.25	3774.37	126.621	
538.760		3918.71		3771.03	3772.27	3771.03	3772.27	146.438	
538.740		4053.91		3768.82	3770.18	3768.82	3770.18	283.723	
538.720		3968.73		3766.49	3767.99	3766.49	3767.99	200.736	
538.700		3949.87		3764.12	3765.79	3764.12	3765.79	184.081	
538.680		4006.17		3761.79	3763.62	3761.79	3763.62	242.550	
538.660		3920.43		3759.43	3761.44	3759.43	3761.44	158.984	
538.640		4065.34		3757.03	3759.24	3757.03	3759.24	306.102	
538.620		4054.19		3754.57	3756.98	3754.57	3756.98	297.208	
538.600		3938.43		3752.03	3754.67	3752.03	3754.67	183.758	
538.580		4115.07		3749.45	3752.35	3749.45	3752.35	362.723	
538.560		4004.74		3746.77	3749.94	3746.77	3749.94	254.808	
538.540		3900.70		3744.02	3747.47	3744.02	3747.47	153.233	
538.520		3940.43		3741.28	3745.05	3741.28	3745.05	195.384	
